CTI3   

DESCRIPTOR "Argyll Calibration Target chart information 3"
ORIGINATOR "Argyll dispread"
CREATED "Thu Jan  5 17:24:43 2012"
KEYWORD "DEVICE_CLASS"
DEVICE_CLASS "DISPLAY"
KEYWORD "COLOR_REP"
COLOR_REP "RGB_XYZ"
KEYWORD "TARGET_INSTRUMENT"
TARGET_INSTRUMENT "Hughski ColorHug"
KEYWORD "INSTRUMENT_TYPE_SPECTRAL"
INSTRUMENT_TYPE_SPECTRAL "NO"
KEYWORD "LUMINANCE_XYZ_CDM2"
LUMINANCE_XYZ_CDM2 "35.705566 41.656494 46.920776"
KEYWORD "NORMALIZED_TO_Y_100"
NORMALIZED_TO_Y_100 "YES"

NUMBER_OF_FIELDS 7
BEGIN_DATA_FORMAT
SAMPLE_ID RGB_R RGB_G RGB_B XYZ_X XYZ_Y XYZ_Z 
END_DATA_FORMAT

NUMBER_OF_SETS 836
BEGIN_DATA
1 100.00 100.00 100.00 85.714 100.00 112.64 
2 100.00 100.00 100.00 114.29 100.00 112.64 
3 100.00 100.00 100.00 114.84 99.451 112.64 
4 100.00 100.00 100.00 114.84 100.00 112.09 
5 33.330 32.622 30.968 10.989 9.3407 9.8901 
6 100.00 0.0000 100.00 72.527 26.923 79.121 
7 100.00 100.00 0.0000 113.19 82.967 43.407 
8 0.0000 100.00 100.00 42.857 93.956 100.55 
9 0.0000 100.00 0.0000 41.209 75.824 32.967 
10 0.0000 0.0000 100.00 2.7473 19.231 68.681 
11 100.00 0.0000 0.0000 70.330 8.7912 10.989 
12 0.0000 0.0000 0.0000 0.54945 1.0989 0.54945 
13 0.0000 52.455 100.00 12.088 37.363 77.473 
14 100.00 0.0000 50.300 71.429 13.187 25.275 
15 100.00 54.739 100.00 83.516 46.703 87.363 
16 100.00 52.128 0.0000 80.769 26.374 18.681 
17 0.0000 0.0000 46.181 1.0989 3.8462 13.187 
18 0.0000 51.141 0.0000 9.8901 17.582 8.2418 
19 0.0000 100.00 51.348 41.209 79.670 48.901 
20 100.00 100.00 52.037 111.54 87.363 59.890 
21 49.216 0.0000 0.0000 14.835 2.7473 2.7473 
22 56.159 100.00 0.0000 59.341 76.374 36.264 
23 49.226 100.00 100.00 57.143 93.956 104.40 
24 44.487 0.0000 100.00 13.736 19.780 71.429 
25 100.00 44.498 52.029 78.022 25.275 32.418 
26 48.926 48.544 100.00 25.275 35.714 78.022 
27 51.368 100.00 47.250 57.143 79.670 48.352 
28 49.893 0.0000 49.033 15.934 6.0440 17.033 
29 53.109 51.372 0.0000 27.473 19.780 10.440 
30 0.0000 58.587 53.943 13.736 28.022 27.473 
31 100.00 28.065 100.00 75.275 31.868 80.769 
32 0.0000 0.0000 72.874 1.6484 9.8901 32.967 
33 0.0000 26.758 100.00 4.9451 23.626 70.879 
34 0.0000 25.426 0.0000 2.7473 4.3956 2.1978 
35 72.508 0.0000 100.00 35.165 23.077 75.275 
36 100.00 27.395 0.0000 73.077 13.187 13.187 
37 74.470 100.00 100.00 78.022 97.802 107.14 
38 100.00 0.0000 25.728 69.780 9.8901 14.835 
39 73.862 0.0000 0.0000 35.714 4.9451 6.0440 
40 100.00 100.00 25.402 112.64 82.418 47.802 
41 0.0000 75.751 100.00 24.176 59.341 85.714 
42 0.0000 75.172 0.0000 22.527 39.560 18.132 
43 0.0000 100.00 25.864 40.659 75.824 36.813 
44 100.00 0.0000 74.801 71.429 18.132 46.703 
45 0.0000 100.00 75.421 42.308 84.066 68.681 
46 24.577 0.0000 0.0000 3.8462 1.6484 1.0989 
47 26.321 100.00 0.0000 45.055 75.824 32.967 
48 100.00 75.835 0.0000 93.956 48.352 28.022 
49 100.00 100.00 77.061 113.74 93.407 80.769 
50 71.263 100.00 0.0000 73.077 79.121 38.462 
51 0.0000 0.0000 15.614 0.54945 1.0989 2.1978 
52 0.0000 30.049 70.936 4.3956 14.835 34.066 
53 100.00 77.691 100.00 94.505 68.132 98.352 
54 24.486 100.00 100.00 45.604 92.857 102.75 
55 100.00 62.784 31.909 85.165 35.165 28.571 
56 29.552 0.0000 100.00 7.6923 19.231 70.330 
57 32.980 70.921 100.00 27.473 53.297 85.165 
58 0.0000 27.681 40.241 3.8462 7.6923 12.088 
59 67.901 71.021 100.00 50.549 56.044 87.363 
60 28.154 100.00 67.829 46.703 83.516 61.538 
61 71.637 100.00 70.001 74.725 87.363 67.582 
62 58.822 58.763 53.586 34.615 30.220 30.769 
63 33.466 30.480 0.0000 10.440 7.1429 3.8462 
64 100.00 73.795 71.277 92.308 54.396 59.341 
65 68.394 29.692 0.0000 32.967 9.3407 7.6923 
66 70.399 0.0000 29.039 31.868 6.0440 9.8901 
67 28.078 0.0000 26.956 5.4945 2.1978 5.4945 
68 28.532 72.339 0.0000 25.275 36.813 17.582 
69 100.00 30.941 26.496 73.626 15.934 17.582 
70 34.597 0.0000 73.611 8.2418 10.440 34.615 
71 71.573 0.0000 72.408 34.615 13.187 37.912 
72 0.0000 71.029 29.412 19.780 36.264 20.330 
73 68.386 75.008 0.0000 51.099 43.407 21.978 
74 68.088 27.309 100.00 33.516 27.473 75.824 
75 100.00 26.457 73.749 72.527 22.527 47.253 
76 74.344 100.00 27.392 76.374 80.220 43.407 
77 27.558 100.00 28.197 45.055 76.374 38.462 
78 31.196 27.465 100.00 10.440 24.176 73.077 
79 0.0000 75.521 72.824 23.077 48.352 51.648 
80 0.0000 50.930 25.553 9.8901 18.681 11.538 
81 32.060 33.584 64.033 10.989 14.286 29.121 
82 81.666 55.380 0.0000 56.044 25.824 15.934 
83 68.257 32.751 58.286 34.066 16.484 28.022 
84 0.0000 55.248 81.585 12.637 31.868 51.648 
85 73.781 52.099 100.00 46.154 40.110 82.967 
86 100.00 50.537 82.952 80.220 36.264 63.187 
87 23.550 0.0000 50.439 4.3956 4.9451 16.484 
88 31.335 62.746 31.114 20.879 28.571 18.132 
89 100.00 18.310 49.418 72.527 14.835 26.374 
90 26.498 48.404 0.0000 13.187 15.934 8.2418 
91 47.910 100.00 85.744 56.044 90.110 81.868 
92 71.829 47.313 31.811 41.758 20.879 17.033 
93 31.304 64.132 69.316 22.527 36.813 42.857 
94 80.403 0.0000 54.321 43.407 10.440 24.176 
95 18.455 50.036 100.00 13.187 35.714 76.923 
96 50.653 100.00 16.345 56.044 77.473 36.813 
97 80.121 100.00 52.261 82.967 84.066 55.495 
98 0.0000 22.540 19.289 2.1978 4.3956 4.3956 
99 100.00 75.273 46.886 92.308 50.549 41.209 
100 0.0000 78.618 56.625 24.725 48.352 38.462 
101 51.137 80.627 100.00 42.857 65.385 91.758 
102 48.446 0.0000 17.864 14.835 2.7473 4.3956 
103 100.00 50.023 21.211 80.220 25.275 20.879 
104 50.115 20.118 0.0000 17.033 4.9451 3.8462 
105 58.099 72.426 33.158 40.659 40.110 25.275 
106 19.364 100.00 50.197 43.407 80.220 47.802 
107 50.683 19.177 100.00 19.231 23.626 72.527 
108 53.370 0.0000 81.576 18.681 14.286 46.703 
109 47.768 76.245 0.0000 36.264 41.758 20.879 
110 0.0000 18.927 55.503 2.1978 8.2418 19.780 
111 0.0000 13.277 0.0000 1.6484 2.1978 1.0989 
112 72.862 72.473 75.625 55.495 50.000 57.143 
113 100.00 13.904 0.0000 71.978 9.8901 11.538 
114 86.349 0.0000 100.00 52.747 25.275 75.824 
115 100.00 41.941 100.00 78.571 38.462 84.066 
116 100.00 81.785 16.464 97.802 56.593 33.516 
117 0.0000 44.063 52.596 8.2418 17.582 21.978 
118 0.0000 0.0000 58.917 1.6484 6.0440 21.429 
119 59.250 24.551 29.789 23.626 8.2418 10.440 
120 82.730 82.874 100.00 73.077 72.527 98.352 
121 80.039 0.0000 12.618 42.308 5.4945 7.6923 
122 60.957 47.729 77.817 32.418 28.022 49.451 
123 100.00 0.0000 38.618 70.879 10.989 19.780 
124 0.0000 40.090 100.00 7.6923 29.121 74.725 
125 0.0000 15.283 82.322 2.7473 13.736 45.604 
126 17.592 81.726 100.00 29.670 66.484 91.209 
127 100.00 14.130 100.00 72.527 28.571 81.319 
128 15.261 100.00 82.059 43.407 86.264 77.473 
129 47.770 79.418 60.389 39.011 51.648 43.956 
130 18.768 16.429 0.0000 3.8462 2.7473 1.6484 
131 55.634 100.00 65.763 60.989 83.516 62.637 
132 100.00 100.00 38.541 113.74 85.165 52.198 
133 17.421 0.0000 83.497 3.2967 13.187 45.604 
134 17.237 16.758 100.00 4.9451 21.429 69.780 
135 0.0000 15.067 30.039 1.6484 3.8462 6.0440 
136 0.0000 0.0000 86.505 2.1978 13.736 49.451 
137 75.736 72.799 50.020 58.242 44.505 36.813 
138 100.00 83.323 85.529 100.55 70.879 79.121 
139 100.00 100.00 64.894 112.64 90.659 69.780 
140 81.980 84.914 0.0000 72.527 57.692 29.670 
141 0.0000 63.757 15.490 15.385 28.022 14.286 
142 49.514 66.135 100.00 32.418 50.000 85.165 
143 100.00 0.0000 61.862 70.330 14.835 34.615 
144 24.308 45.410 49.831 11.538 18.132 21.429 
145 15.963 0.0000 17.047 2.1978 1.0989 2.7473 
146 87.497 100.00 100.00 94.505 97.253 109.34 
147 52.099 25.003 75.752 20.330 16.484 40.659 
148 14.909 81.162 0.0000 27.473 46.154 21.429 
149 0.0000 34.792 14.626 4.9451 8.2418 4.9451 
150 48.390 45.075 22.552 21.978 15.934 11.538 
151 83.545 65.965 100.00 64.835 53.846 87.912 
152 16.226 62.345 0.0000 16.484 26.923 12.088 
153 63.222 0.0000 14.914 25.824 3.8462 6.0440 
154 80.449 13.446 0.0000 43.407 6.5934 7.6923 
155 83.917 41.562 0.0000 52.747 17.033 12.637 
156 100.00 60.448 46.300 83.516 36.264 34.066 
157 15.584 0.0000 34.795 2.1978 2.7473 8.2418 
158 17.144 65.121 100.00 19.231 47.802 82.967 
159 83.602 55.334 62.667 58.242 31.868 40.110 
160 0.0000 82.190 14.220 26.923 48.352 23.077 
161 25.132 74.856 50.616 25.824 43.407 32.967 
162 0.0000 13.769 100.00 3.2967 20.330 70.330 
163 87.181 0.0000 0.0000 51.648 6.5934 8.2418 
164 0.0000 100.00 39.190 41.758 76.923 41.758 
165 78.047 65.914 19.865 56.593 34.615 21.429 
166 100.00 63.961 15.865 86.813 36.264 24.176 
167 100.00 45.955 36.032 78.571 24.176 24.176 
168 15.926 100.00 16.890 42.857 76.374 34.615 
169 41.459 100.00 0.0000 51.099 76.923 34.615 
170 48.707 37.288 48.139 19.780 14.835 20.330 
171 83.381 100.00 13.285 86.813 81.319 41.758 
172 78.129 25.303 75.621 42.857 19.231 44.505 
173 12.396 0.0000 0.0000 2.1978 0.54945 0.54945 
174 37.607 48.336 83.346 18.132 28.571 54.396 
175 35.588 15.356 0.0000 8.7912 3.2967 2.7473 
176 61.245 100.00 100.00 65.934 94.505 106.04 
177 100.00 67.290 87.195 89.560 51.648 75.275 
178 0.0000 0.0000 30.615 1.0989 2.1978 6.0440 
179 35.187 81.789 83.323 34.615 60.440 67.033 
180 39.525 80.194 22.879 34.615 46.703 25.275 
181 50.634 34.593 0.0000 19.780 9.3407 6.0440 
182 14.175 100.00 63.146 42.857 80.769 57.143 
183 83.493 17.728 34.574 48.352 9.8901 15.385 
184 23.463 22.014 79.943 7.1429 14.835 43.407 
185 18.066 31.847 0.0000 6.5934 7.1429 3.8462 
186 87.201 100.00 81.361 94.505 92.857 82.418 
187 0.0000 100.00 87.950 42.857 89.560 83.516 
188 34.476 17.888 46.220 8.7912 6.5934 14.835 
189 18.277 0.0000 67.390 3.2967 8.2418 28.571 
190 100.00 87.972 0.0000 102.20 64.286 35.165 
191 82.925 34.850 100.00 51.648 32.418 79.670 
192 0.0000 88.016 100.00 32.418 75.275 93.956 
193 36.104 85.655 100.00 37.912 72.527 93.956 
194 60.981 0.0000 0.0000 23.077 3.2967 4.3956 
195 51.466 61.826 78.106 30.769 37.912 52.747 
196 78.427 31.983 22.175 43.956 12.088 12.637 
197 66.017 44.321 0.0000 34.615 16.484 10.440 
198 83.941 0.0000 84.177 48.352 18.132 53.846 
199 20.158 46.612 23.269 10.440 15.385 10.440 
200 0.0000 100.00 62.618 41.758 80.220 57.143 
201 33.832 0.0000 13.933 7.1429 1.6484 3.2967 
202 100.00 17.286 16.322 71.429 10.989 13.736 
203 0.0000 42.204 83.926 8.2418 24.725 51.099 
204 0.0000 87.774 0.0000 30.769 56.044 25.275 
205 64.988 0.0000 59.017 27.473 9.3407 25.824 
206 14.677 0.0000 100.00 3.2967 19.231 70.330 
207 88.934 82.673 35.021 79.670 56.044 37.363 
208 0.0000 63.778 100.00 17.582 46.154 81.868 
209 83.429 17.674 100.00 48.901 25.824 78.022 
210 30.899 100.00 85.668 47.802 87.912 82.418 
211 83.680 0.0000 41.016 47.802 8.7912 17.582 
212 100.00 63.515 0.0000 86.264 35.165 22.527 
213 85.074 69.987 0.0000 67.582 39.011 22.527 
214 20.801 45.524 69.018 10.989 21.978 35.714 
215 21.382 82.482 73.017 30.769 58.242 54.396 
216 100.00 15.128 64.249 71.978 17.033 36.264 
217 36.522 0.0000 58.427 9.3407 7.1429 21.429 
218 22.466 81.296 33.007 29.121 49.451 26.923 
219 62.531 87.152 0.0000 54.396 58.242 28.022 
220 84.120 85.397 67.886 75.824 65.934 58.791 
221 18.870 27.336 45.389 5.4945 8.7912 14.835 
222 66.439 100.00 14.444 68.132 78.571 39.011 
223 41.636 22.147 19.003 12.637 5.4945 6.0440 
224 61.271 100.00 81.940 64.835 88.462 80.769 
225 86.013 100.00 0.0000 91.209 79.670 41.209 
226 37.570 0.0000 0.0000 8.7912 1.6484 2.1978 
227 100.00 16.132 84.102 72.527 22.527 57.692 
228 0.0000 100.00 13.619 41.209 75.275 34.066 
229 38.905 100.00 56.471 50.549 81.319 52.747 
230 100.00 15.382 34.563 71.978 12.088 18.132 
231 36.656 14.908 100.00 10.440 21.429 70.330 
232 0.0000 62.593 66.608 15.934 34.066 38.462 
233 66.347 12.528 100.00 30.220 23.626 73.626 
234 100.00 43.375 69.233 77.473 28.571 45.604 
235 100.00 56.360 61.236 81.868 35.714 42.857 
236 0.0000 86.194 44.955 29.670 57.143 35.714 
237 64.527 87.262 100.00 57.143 76.374 97.802 
238 34.411 0.0000 42.471 7.6923 4.3956 12.088 
239 80.230 59.707 85.120 56.044 41.758 64.286 
240 20.625 19.056 14.791 4.3956 3.8462 3.8462 
241 15.341 34.221 100.00 8.2418 26.374 73.077 
242 36.777 0.0000 87.905 9.8901 14.835 53.297 
243 34.598 56.247 100.00 20.330 40.110 79.121 
244 20.860 67.629 17.418 20.330 32.418 16.484 
245 44.958 60.843 18.054 26.374 26.923 15.385 
246 37.421 60.193 0.0000 21.978 25.824 12.088 
247 84.011 33.849 42.612 52.198 15.934 20.879 
248 17.241 60.339 37.743 15.934 27.473 19.231 
249 50.650 17.261 53.278 17.582 8.7912 20.879 
250 45.505 48.926 65.152 22.527 24.176 35.165 
251 44.567 84.081 39.649 40.110 53.846 32.967 
252 100.00 86.339 72.054 102.20 69.780 66.484 
253 68.140 61.135 0.0000 43.956 28.571 15.934 
254 17.930 66.986 81.403 20.330 42.308 56.593 
255 39.242 60.215 48.926 23.077 29.670 25.824 
256 20.099 18.770 62.967 4.9451 9.8901 25.824 
257 34.553 100.00 14.582 47.802 76.923 35.714 
258 87.345 0.0000 66.694 52.198 13.736 35.165 
259 0.0000 43.714 39.842 7.1429 14.835 14.835 
260 100.00 37.705 13.955 74.725 18.132 16.484 
261 31.265 86.993 0.0000 35.165 54.945 25.275 
262 51.402 82.661 81.338 43.407 61.538 67.033 
263 100.00 100.00 12.984 113.19 82.967 44.505 
264 0.0000 37.859 0.0000 5.4945 9.3407 4.9451 
265 62.092 58.215 100.00 37.912 44.505 81.868 
266 86.186 100.00 64.100 92.308 87.912 65.385 
267 100.00 35.251 85.898 75.824 29.670 62.088 
268 63.182 89.992 41.974 56.593 64.835 40.110 
269 13.504 100.00 0.0000 41.758 75.824 33.516 
270 100.00 0.0000 13.228 69.780 9.3407 12.088 
271 63.881 40.826 100.00 32.967 32.418 78.571 
272 69.387 84.838 20.792 58.791 56.044 29.670 
273 0.0000 70.279 45.136 19.231 37.363 26.923 
274 79.094 64.754 40.908 56.044 35.714 28.571 
275 62.385 54.099 17.396 34.615 23.077 14.286 
276 64.408 14.621 0.0000 26.923 4.9451 5.4945 
277 70.028 15.606 44.651 32.967 8.7912 17.582 
278 0.0000 63.544 0.0000 15.385 27.473 12.637 
279 83.475 47.274 20.502 54.396 20.330 15.934 
280 55.866 0.0000 32.671 19.780 4.3956 9.3407 
281 58.007 0.0000 100.00 23.077 21.429 73.077 
282 100.00 0.0000 87.698 71.978 21.978 61.538 
283 0.0000 13.792 67.215 1.6484 9.3407 28.571 
284 84.123 17.001 58.549 49.451 13.187 28.571 
285 59.579 32.873 15.966 25.824 10.440 8.2418 
286 10.410 32.998 28.659 5.4945 9.3407 8.2418 
287 17.231 40.031 85.650 9.3407 24.176 52.747 
288 37.568 41.561 10.108 14.835 12.637 7.6923 
289 0.0000 69.015 85.092 19.231 45.604 62.637 
290 14.442 100.00 36.187 42.308 77.473 41.209 
291 100.00 40.549 0.0000 75.275 18.681 15.934 
292 82.143 45.435 78.429 52.747 29.670 52.747 
293 52.674 0.0000 67.300 18.132 9.8901 31.319 
294 0.0000 87.868 66.793 31.319 62.088 51.648 
295 86.530 100.00 40.524 92.857 82.967 50.000 
296 71.777 85.586 67.232 63.187 63.736 55.495 
297 43.216 100.00 31.671 52.198 78.022 40.110 
298 39.245 32.908 85.845 14.835 21.429 52.747 
299 0.0000 45.662 67.543 8.2418 21.429 34.066 
300 12.161 100.00 100.00 43.956 94.505 101.10 
301 67.049 0.0000 85.516 29.670 17.033 52.747 
302 100.00 89.041 100.00 103.30 84.066 104.95 
303 20.246 60.698 56.526 16.484 30.220 30.769 
304 52.177 55.457 40.416 28.022 25.275 20.879 
305 72.617 87.018 83.932 63.736 69.780 75.824 
306 40.512 16.723 66.475 12.088 10.989 30.220 
307 68.507 49.232 50.605 39.011 23.626 27.473 
308 65.622 100.00 54.525 68.681 81.868 54.396 
309 54.115 37.240 66.394 24.176 18.681 34.066 
310 100.00 76.138 31.267 92.308 50.549 34.066 
311 54.728 65.623 0.0000 34.066 31.868 15.934 
312 63.126 12.526 64.370 26.374 11.538 30.220 
313 72.827 18.080 23.704 35.165 7.6923 9.8901 
314 23.268 15.278 34.947 4.9451 4.3956 8.7912 
315 87.648 68.954 59.645 70.879 43.407 43.956 
316 0.0000 85.595 85.198 30.769 64.835 71.429 
317 35.798 84.371 69.210 35.714 59.890 53.846 
318 36.062 47.494 35.919 15.934 17.582 15.385 
319 86.083 36.277 59.152 54.396 20.330 32.967 
320 58.210 100.00 30.361 61.538 78.571 41.758 
321 46.745 14.614 32.317 14.286 5.4945 9.3407 
322 81.573 73.869 86.954 65.385 56.593 73.626 
323 85.991 49.387 48.206 58.242 25.824 28.571 
324 28.062 87.906 19.654 35.165 56.593 28.022 
325 68.992 17.993 85.124 32.967 18.681 53.846 
326 100.00 66.147 100.00 89.011 55.495 92.857 
327 33.358 64.806 84.517 23.626 41.209 60.440 
328 41.351 17.736 80.522 12.637 15.385 45.055 
329 100.00 100.00 88.719 114.84 96.154 95.604 
330 66.336 0.0000 44.320 28.571 7.1429 15.934 
331 64.850 67.090 12.293 43.956 34.066 18.681 
332 15.262 31.268 63.277 6.0440 13.736 27.473 
333 15.008 43.663 37.300 8.7912 15.385 13.736 
334 0.0000 57.895 38.078 13.187 24.725 18.132 
335 66.599 58.458 67.871 40.659 33.516 43.407 
336 59.191 18.651 15.215 23.077 6.0440 6.5934 
337 66.781 31.140 84.629 32.418 22.527 54.396 
338 88.033 85.158 52.140 81.319 61.538 47.802 
339 36.882 100.00 100.00 50.549 92.857 103.30 
340 26.102 33.094 17.006 8.2418 8.2418 6.0440 
341 56.309 36.861 35.862 25.275 13.187 14.835 
342 45.839 65.587 67.033 29.670 37.912 42.308 
343 83.709 81.172 16.406 73.077 52.747 29.121 
344 0.0000 48.132 13.005 8.7912 16.484 8.2418 
345 87.176 50.021 100.00 62.637 41.209 83.516 
346 51.219 84.244 13.730 43.956 53.297 26.374 
347 60.606 71.415 48.406 42.308 41.758 32.418 
348 0.0000 11.359 12.718 1.0989 2.1978 2.1978 
349 86.429 49.705 33.145 58.791 24.176 21.429 
350 34.056 40.958 100.00 14.835 30.769 75.275 
351 100.00 30.557 59.628 73.077 20.330 35.165 
352 88.497 26.902 13.449 56.044 11.538 12.088 
353 14.167 51.980 88.218 13.187 31.868 59.890 
354 13.784 12.983 49.370 2.7473 6.0440 15.385 
355 15.018 88.441 48.062 33.516 60.989 38.462 
356 87.790 25.769 89.215 56.044 24.725 62.637 
357 0.0000 33.206 55.865 4.9451 12.637 21.978 
358 74.324 76.029 35.536 58.242 46.703 30.769 
359 65.863 57.223 42.324 39.560 28.022 24.176 
360 30.893 54.646 13.136 16.484 21.429 10.989 
361 0.0000 34.360 28.321 4.9451 9.3407 8.7912 
362 15.443 77.087 85.116 25.824 54.945 66.484 
363 63.381 68.947 68.521 43.407 43.407 47.802 
364 69.733 27.566 42.917 34.066 11.538 18.132 
365 32.754 100.00 42.760 47.253 78.022 44.505 
366 47.096 29.481 34.829 17.033 9.3407 12.088 
367 8.5451 71.948 62.695 21.429 41.758 40.110 
368 0.0000 86.048 29.300 30.220 54.396 28.571 
369 53.697 51.572 85.367 29.121 32.967 58.242 
370 17.608 56.690 12.515 14.286 21.978 11.538 
371 90.638 14.414 49.227 58.242 12.088 23.626 
372 63.248 63.640 89.550 41.758 44.505 68.132 
373 100.00 85.976 58.455 101.65 67.582 53.846 
374 9.8311 28.027 7.5567 4.3956 6.0440 3.2967 
375 89.831 64.313 69.506 69.780 42.308 51.099 
376 31.754 12.995 25.543 7.1429 3.8462 6.0440 
377 75.914 45.966 64.957 45.604 25.275 37.912 
378 7.5735 50.695 58.941 10.989 22.527 28.571 
379 100.00 69.835 58.912 90.110 46.154 46.154 
380 32.211 34.376 48.339 10.989 12.637 18.132 
381 13.901 12.159 73.555 3.2967 10.989 34.615 
382 87.071 9.0280 77.653 52.198 17.582 46.154 
383 23.272 85.409 84.290 33.516 65.934 69.231 
384 93.289 39.480 26.145 65.385 18.681 17.582 
385 65.769 59.630 30.967 40.110 29.121 20.330 
386 100.00 32.265 41.803 73.077 17.582 24.176 
387 86.568 85.281 86.961 79.121 71.978 80.769 
388 52.577 86.830 30.016 45.604 58.242 31.868 
389 47.921 40.199 76.902 20.330 21.978 45.055 
390 22.360 86.619 61.580 33.516 59.890 47.802 
391 52.232 33.601 88.787 21.978 23.626 58.791 
392 0.0000 28.523 86.267 4.9451 18.681 51.648 
393 43.497 67.879 39.551 29.121 34.615 24.725 
394 39.877 45.261 0.0000 17.033 14.835 7.6923 
395 86.940 12.430 24.699 52.198 8.7912 12.088 
396 28.363 55.339 90.398 17.582 35.714 63.736 
397 39.018 70.534 57.879 28.571 40.659 36.264 
398 12.833 28.519 78.828 5.4945 16.484 42.308 
399 68.350 31.815 69.975 33.516 18.681 37.912 
400 56.520 26.226 41.626 23.077 9.8901 15.385 
401 12.938 46.218 0.0000 9.3407 14.835 7.1429 
402 8.6938 60.179 26.117 14.286 25.824 15.385 
403 51.995 89.429 96.608 48.901 76.923 92.857 
404 46.905 47.746 48.909 21.978 20.879 23.077 
405 14.352 81.814 19.479 28.022 48.901 23.626 
406 71.482 38.117 12.273 37.363 13.736 10.440 
407 86.616 60.785 10.012 63.736 31.319 19.231 
408 71.811 88.979 52.186 64.286 65.385 46.703 
409 43.213 100.00 72.083 51.648 85.714 67.582 
410 73.920 23.444 8.2853 37.363 8.2418 8.2418 
411 40.629 85.534 53.423 38.462 58.242 41.758 
412 38.955 52.128 22.885 19.231 19.780 12.637 
413 46.480 12.229 8.6707 13.736 3.8462 3.8462 
414 40.855 33.301 22.309 14.835 9.3407 8.2418 
