CTI3
DESCRIPTOR	"Calibration Target chart information 3"
ORIGINATOR	"ColorHug Factory"
DEVICE_CLASS	"DISPLAY"
COLOR_REP	"RGB_XYZ"
TARGET_INSTRUMENT	"ColorHug"
INSTRUMENT_TYPE_SPECTRAL	"NO"
LUMINANCE_XYZ_CDM2	"49.919128 36.575317 42.182922"
NORMALIZED_TO_Y_100	"YES"
NUMBER_OF_FIELDS	7
NUMBER_OF_SETS	836
BEGIN_DATA_FORMAT
 SAMPLE_ID	RGB_R	RGB_G	RGB_B	XYZ_X	XYZ_Y	XYZ_Z
END_DATA_FORMAT
BEGIN_DATA
 1	100	100	100	136.5	100	115.25
 2	100	100	100	136	100	115.125
 3	100	100	100	136.75	99.75	115.125
 4	100	100	100	136	99.75	115.25
 5	33.33	32.622	30.968	11.625	8.375	9.125
 6	100	0	100	86.75	28	82.5
 7	100	100	0	134.875	81.125	46
 8	0	100	100	47.625	90.875	101.875
 9	0	100	0	46.125	71.875	32.625
 10	0	0	100	2.375	19	69.75
 11	100	0	0	85	9	12.875
 12	0	0	0	0.25	0.25	0.25
 13	0	52.455	100	12.625	35.75	77.25
 14	100	0	50.3	85.375	13	27.375
 15	100	54.739	100	99.375	46.125	91
 16	100	52.128	0	96	25.125	20.375
 17	0	0	46.181	0.5	3.375	11.75
 18	0	51.141	0	10.25	15.75	7.375
 19	0	100	51.348	46.5	76	47.625
 20	100	100	52.037	134.125	85.625	61.75
 21	49.216	0	0	17.125	2	2.75
 22	56.159	100	0	69.125	74.125	36
 23	49.226	100	100	65.125	93.125	104.875
 24	44.487	0	100	15.75	20.625	71.875
 25	100	44.498	52.029	93.25	25.125	33.875
 26	48.926	48.544	100	28.125	35	79
 27	51.368	100	47.25	65.375	77.5	48.125
 28	49.893	0	49.033	18.125	5.75	16.5
 29	53.109	51.372	0	30.5	18	10.375
 30	0	58.587	53.943	14.375	25.875	26.375
 31	100	28.065	100	90.125	32.75	84.875
 32	0	0	72.874	1.25	8.875	32.25
 33	0	26.758	100	4.5	23.25	71
 34	0	25.426	0	2.5	3.75	1.875
 35	72.508	0	100	41.875	23.375	75.5
 36	100	27.395	0	87.625	13.25	14.875
 37	74.47	100	100	91.75	95.75	108.75
 38	100	0	25.728	85.125	10.125	16.5
 39	73.862	0	0	41.625	4.5	6.5
 40	100	100	25.402	133.375	81.75	49.375
 41	0	75.751	100	26.625	56.625	86.875
 42	0	75.172	0	24	36.5	16.75
 43	0	100	25.864	46.375	73	36
 44	100	0	74.801	86.125	18.625	47.625
 45	0	100	75.421	47.25	81.625	68.5
 46	24.577	0	0	4.125	0.625	0.875
 47	26.321	100	0	50.875	72.5	33.25
 48	100	75.835	0	111.625	46.375	30
 49	100	100	77.061	135.5	91.25	83.25
 50	71.263	100	0	85.25	76.125	38.625
 51	0	0	15.614	0.25	0.5	1.5
 52	0	30.049	70.936	4.25	13.5	32.75
 53	100	77.691	100	114.625	68.375	100.625
 54	24.486	100	100	51.875	91.625	102.875
 55	100	62.784	31.909	102.125	35.125	29.625
 56	29.552	0	100	7.875	19.625	70.625
 57	32.98	70.921	100	30.25	52	85.25
 58	0	27.681	40.241	3.25	6.875	10.875
 59	67.901	71.021	100	57.75	55.375	89.625
 60	28.154	100	67.829	51.875	80	61.25
 61	71.637	100	70.001	86.75	84.625	68.75
 62	58.822	58.763	53.586	39	28.25	29.875
 63	33.466	30.48	0	11	6.125	3.75
 64	100	73.795	71.277	110.375	52.5	59.75
 65	68.394	29.692	0	38.25	8.75	7.625
 66	70.399	0	29.039	37.375	5.375	10.25
 67	28.078	0	26.956	5.5	1.75	4.875
 68	28.532	72.339	0	27.375	34	16.125
 69	100	30.941	26.496	88.75	15.5	19.125
 70	34.597	0	73.611	9	10	34.375
 71	71.573	0	72.408	39.375	13	37.875
 72	0	71.029	29.412	21.375	33.5	19.5
 73	68.386	75.008	0	59.25	40.25	22
 74	68.088	27.309	100	39.375	27.125	77
 75	100	26.457	73.749	88.125	22.375	48.625
 76	74.344	100	27.392	89.625	78	43.25
 77	27.558	100	28.197	51.5	73.75	37.5
 78	31.196	27.465	100	11.25	24.125	73
 79	0	75.521	72.824	25.25	46.25	49.375
 80	0	50.93	25.553	10.25	16.5	10.75
 81	32.06	33.584	64.033	11.75	14	28.5
 82	81.666	55.38	0	64.875	24.25	16.5
 83	68.257	32.751	58.286	39.5	15.375	28
 84	0	55.248	81.585	13.25	30.375	51
 85	73.781	52.099	100	54.125	40	83.375
 86	100	50.537	82.952	96.375	36.5	64.375
 87	23.55	0	50.439	4.375	4.375	15.125
 88	31.335	62.746	31.114	22.875	26.875	17.5
 89	100	18.31	49.418	86.75	14.875	27.75
 90	26.498	48.404	0	13.875	14.5	7.25
 91	47.91	100	85.744	63.625	87	83.125
 92	71.829	47.313	31.811	48.375	19.125	17.625
 93	31.304	64.132	69.316	24.25	34.5	41.875
 94	80.403	0	54.321	51	10.25	24.875
 95	18.455	50.036	100	14	34.5	77.125
 96	50.653	100	16.345	64.25	74.5	36.875
 97	80.121	100	52.261	98.375	81.625	56.375
 98	0	22.54	19.289	2.125	3.625	3.625
 99	100	75.273	46.886	110.375	48.75	42
 100	0	78.618	56.625	27.125	45.875	37.125
 101	51.137	80.627	100	48.375	64	92.25
 102	48.446	0	17.864	16.625	2.375	4.5
 103	100	50.023	21.211	94.625	24.625	22.25
 104	50.115	20.118	0	19.25	4.375	4
 105	58.099	72.426	33.158	46.5	37.875	25
 106	19.364	100	50.197	48.625	75.25	47.125
 107	50.683	19.177	100	21.625	23.125	73.625
 108	53.37	0	81.576	21.75	14	46
 109	47.768	76.245	0	40.375	39.375	19.625
 110	0	18.927	55.503	1.875	7	18.625
 111	0	13.277	0	0.875	1.125	0.75
 112	72.862	72.473	75.625	62.75	47.5	57
 113	100	13.904	0	85.625	10.125	13.375
 114	86.349	0	100	61.75	25.5	78.75
 115	100	41.941	100	93.625	38.25	86.75
 116	100	81.785	16.464	116.25	53.625	34.875
 117	0	44.063	52.596	8	15.875	21.125
 118	0	0	58.917	0.75	5.5	20
 119	59.25	24.551	29.789	28	7.5	10.25
 120	82.73	82.874	100	85.875	70.75	98.75
 121	80.039	0	12.618	49.875	5.75	8.625
 122	60.957	47.729	77.817	36.875	27	48.5
 123	100	0	38.618	84.875	11.25	21.125
 124	0	40.09	100	8	28.625	74
 125	0	15.283	82.322	2.125	13.25	43.75
 126	17.592	81.726	100	33	63.875	90.5
 127	100	14.13	100	87	29.5	83.125
 128	15.261	100	82.059	48.625	83.75	76.375
 129	47.77	79.418	60.389	43.375	49.375	42.875
 130	18.768	16.429	0	3.5	2	1.375
 131	55.634	100	65.763	68.375	81.125	62.25
 132	100	100	38.541	134.5	83.375	53.875
 133	17.421	0	83.497	3.375	12.5	45
 134	17.237	16.758	100	5	21	70.875
 135	0	15.067	30.039	1.125	2.75	5.5
 136	0	0	86.505	1.75	13.25	48.625
 137	75.736	72.799	50.02	67.5	42.875	36.5
 138	100	83.323	85.529	118	68.75	82.125
 139	100	100	64.894	135.375	87.75	71.5
 140	81.98	84.914	0	85.5	53.875	30.25
 141	0	63.757	15.49	16.625	25.625	13
 142	49.514	66.135	100	37.125	48.5	84.875
 143	100	0	61.862	85.625	15.25	35.375
 144	24.308	45.41	49.831	12.25	16.625	20.375
 145	15.963	0	17.047	1.875	0.75	2.125
 146	87.497	100	100	112	97.625	111.75
 147	52.099	25.003	75.752	22.625	15.5	40.625
 148	14.909	81.162	0	29.875	43.375	20.125
 149	0	34.792	14.626	4.625	7.375	4.625
 150	48.39	45.075	22.552	24.375	14.5	10.875
 151	83.545	65.965	100	75.25	52.5	90.625
 152	16.226	62.345	0	17.5	24	11.25
 153	63.222	0	14.914	29.5	3.625	6
 154	80.449	13.446	0	51	6.625	8.25
 155	83.917	41.562	0	62.25	15.875	13
 156	100	60.448	46.3	101	35	35.5
 157	15.584	0	34.795	2	2.125	6.875
 158	17.144	65.121	100	21.375	46.25	82.125
 159	83.602	55.334	62.667	68.625	31	40.125
 160	0	82.19	14.22	29.375	45.125	21.625
 161	25.132	74.856	50.616	28.25	40.5	31.75
 162	0	13.769	100	2.625	20.25	70.375
 163	87.181	0	0	61	6.5	9.25
 164	0	100	39.19	46	74.25	40.75
 165	78.047	65.914	19.865	65.375	32.875	21.75
 166	100	63.961	15.865	102.75	34.875	26.125
 167	100	45.955	36.032	93.625	23.5	25.625
 168	15.926	100	16.89	47.875	72.5	34.25
 169	41.459	100	0	57.625	73.125	34.25
 170	48.707	37.288	48.139	22.375	13.625	19.375
 171	83.381	100	13.285	102.25	78.25	42.125
 172	78.129	25.303	75.621	50.375	18.5	44.375
 173	12.396	0	0	1.25	0.25	0.5
 174	37.607	48.336	83.346	19.875	27.375	52.5
 175	35.588	15.356	0	9.375	2.5	2.125
 176	61.245	100	100	75.625	93.5	106
 177	100	67.29	87.195	105.75	50.875	76
 178	0	0	30.615	0.375	1.5	5.125
 179	35.187	81.789	83.323	38.5	57.625	66.625
 180	39.525	80.194	22.879	38.125	44.375	23.75
 181	50.634	34.593	0	22.75	8.875	6.125
 182	14.175	100	63.146	47.875	78.375	56.5
 183	83.493	17.728	34.574	56	9.625	15.75
 184	23.463	22.014	79.943	6.75	14.25	42.125
 185	18.066	31.847	0	6.125	6.125	3.25
 186	87.201	100	81.361	109.875	90	84.625
 187	0	100	87.95	47.25	85.875	83.75
 188	34.476	17.888	46.22	9.5	6.125	14.125
 189	18.277	0	67.39	3.125	7.75	27.625
 190	100	87.972	0	122.125	62.25	37.375
 191	82.925	34.85	100	61	32	81.25
 192	0	88.016	100	36.375	72	93.75
 193	36.104	85.655	100	42.625	69.625	93.375
 194	60.981	0	0	27.125	3	4.25
 195	51.466	61.826	78.106	35.375	36.375	52.5
 196	78.427	31.983	22.175	51	11.75	12.625
 197	66.017	44.321	0	39.875	15.125	10.375
 198	83.941	0	84.177	57.375	18.5	54.5
 199	20.158	46.612	23.269	11.25	14.125	9.375
 200	0	100	62.618	46.875	78.375	56
 201	33.832	0	13.933	7.75	1.25	2.5
 202	100	17.286	16.322	85.875	11.125	15.125
 203	0	42.204	83.926	8.125	23.125	50.375
 204	0	87.774	0	33.75	51.875	23.625
 205	64.988	0	59.017	31.625	9	25.125
 206	14.677	0	100	3.5	19.25	69.75
 207	88.934	82.673	35.021	94	53.75	37.25
 208	0	63.778	100	18.375	44.75	81.125
 209	83.429	17.674	100	57.875	26.75	78.75
 210	30.899	100	85.668	53.125	84.75	81.125
 211	83.68	0	41.016	55.375	8.5	17.75
 212	100	63.515	0	101.75	33.75	24.25
 213	85.074	69.987	0	78.125	37.125	22.875
 214	20.801	45.524	69.018	11.75	20.625	34.75
 215	21.382	82.482	73.017	33.5	54.75	53.75
 216	100	15.128	64.249	86.125	17	37.75
 217	36.522	0	58.427	9.625	6.375	21
 218	22.466	81.296	33.007	32	45.625	26.375
 219	62.531	87.152	0	61.75	54.25	27.75
 220	84.12	85.397	67.886	89.375	62.5	58.875
 221	18.87	27.336	45.389	5.625	7.75	13.875
 222	66.439	100	14.444	79.125	75.875	38.625
 223	41.636	22.147	19.003	13.875	4.75	5.25
 224	61.271	100	81.94	74.875	86.625	79.625
 225	86.013	100	0	107	78.25	41.625
 226	37.57	0	0	9.375	1.125	1.625
 227	100	16.132	84.102	86.125	23.125	59.375
 228	0	100	13.619	45.875	72	33.5
 229	38.905	100	56.471	56.75	78.25	52.5
 230	100	15.382	34.563	85.375	12.25	20
 231	36.656	14.908	100	11.875	21.375	71.375
 232	0	62.593	66.608	16.5	31.625	37.625
 233	66.347	12.528	100	35.25	23.5	75.375
 234	100	43.375	69.233	92.375	28	47.25
 235	100	56.36	61.236	98.375	34.5	44
 236	0	86.194	44.955	32.75	53	34.25
 237	64.527	87.262	100	66.25	74.25	98
 238	34.411	0	42.471	8.25	3.75	11.375
 239	80.23	59.707	85.12	66	40.5	65
 240	20.625	19.056	14.791	4.375	2.875	2.875
 241	15.341	34.221	100	8	26.125	73.125
 242	36.777	0	87.905	10.5	14.875	52.5
 243	34.598	56.247	100	22.75	39.375	79.75
 244	20.86	67.629	17.418	22	29.75	15.375
 245	44.958	60.843	18.054	29	25	14.5
 246	37.421	60.193	0	24.25	23.25	11.75
 247	84.011	33.849	42.612	60.625	15.5	21.75
 248	17.241	60.339	37.743	16.875	24.75	18.5
 249	50.65	17.261	53.278	20	8.25	20
 250	45.505	48.926	65.152	24.625	22.875	34.25
 251	44.567	84.081	39.649	44.5	50.875	32.375
 252	100	86.339	72.054	121	68.625	68.125
 253	68.14	61.135	0	49.75	26.5	15.75
 254	17.93	66.986	81.403	21.875	40.125	55.75
 255	39.242	60.215	48.926	25.75	27.375	25.5
 256	20.099	18.77	62.967	4.875	8.875	24.875
 257	34.553	100	14.582	54	72.75	35
 258	87.345	0	66.694	61.625	14	36.125
 259	0	43.714	39.842	7.625	13.75	14
 260	100	37.705	13.955	89.75	17.625	17.75
 261	31.265	86.993	0	39.375	51.375	24.25
 262	51.402	82.661	81.338	49.375	59.25	66
 263	100	100	12.984	134.25	81	46.625
 264	0	37.859	0	5.5	8.375	4
 265	62.092	58.215	100	43.625	43	83.375
 266	86.186	100	64.1	107.25	85	66.375
 267	100	35.251	85.898	90.25	29.375	64.5
 268	63.182	89.992	41.974	65.5	61.375	39.625
 269	13.504	100	0	47.25	72	32.625
 270	100	0	13.228	84.625	9.25	13.875
 271	63.881	40.826	100	38.25	32.25	78.875
 272	69.387	84.838	20.792	67.75	52.5	29.75
 273	0	70.279	45.136	21	34.5	25.875
 274	79.094	64.754	40.908	66	33.875	28.625
 275	62.385	54.099	17.396	39.875	21	14.125
 276	64.408	14.621	0	31.25	4.625	5.375
 277	70.028	15.606	44.651	37.625	8.5	17.375
 278	0	63.544	0	16.375	25.125	11.5
 279	83.475	47.274	20.502	63.375	19.75	16.625
 280	55.866	0	32.671	22.5	4.125	9.25
 281	58.007	0	100	26.125	21.625	73.625
 282	100	0	87.698	85.375	22.75	62.875
 283	0	13.792	67.215	1.625	8.625	27.625
 284	84.123	17.001	58.549	57.375	13.125	29.375
 285	59.579	32.873	15.966	29.5	9.375	8.25
 286	10.41	32.998	28.659	5.125	7.625	7.5
 287	17.231	40.031	85.65	9.5	22.875	52.625
 288	37.568	41.561	10.108	16	11.25	6.875
 289	0	69.015	85.092	21	43.125	60.625
 290	14.442	100	36.187	47.5	73.625	39.875
 291	100	40.549	0	91.125	18.75	17.25
 292	82.143	45.435	78.429	61.5	28.5	52.125
 293	52.674	0	67.3	20.75	9.625	30.25
 294	0	87.868	66.793	34.875	60.125	50.875
 295	86.53	100	40.524	108.125	81.125	50.875
 296	71.777	85.586	67.232	72.5	61.5	55.875
 297	43.216	100	31.671	59	74.875	39.875
 298	39.245	32.908	85.845	16	20.5	52.625
 299	0	45.662	67.543	8.875	20.125	33.375
 300	12.161	100	100	48.875	91.375	102.5
 301	67.049	0	85.516	34.5	16.75	52.75
 302	100	89.041	100	124.625	82.875	107.5
 303	20.246	60.698	56.526	18	28	29.5
 304	52.177	55.457	40.416	31.875	23.375	20.75
 305	72.617	87.018	83.932	74.625	68.125	75.5
 306	40.512	16.723	66.475	13.125	10.25	29.125
 307	68.507	49.232	50.605	44.75	22.375	26.75
 308	65.622	100	54.525	79.25	80.5	54.75
 309	54.115	37.24	66.394	26.875	17.625	33.5
 310	100	76.138	31.267	111.375	48.625	35.5
 311	54.728	65.623	0	39	29.25	15.625
 312	63.126	12.526	64.37	30.25	11	29.625
 313	72.827	18.08	23.704	41.125	7.125	10.125
 314	23.268	15.278	34.947	4.875	3.75	8
 315	87.648	68.954	59.645	81.625	42.125	44.375
 316	0	85.595	85.198	33.5	62.375	69.75
 317	35.798	84.371	69.21	40.25	57.125	52.25
 318	36.062	47.494	35.919	17.75	16.5	14.625
 319	86.083	36.277	59.152	64.625	19.625	32.75
 320	58.21	100	30.361	70.375	75.75	41.25
 321	46.745	14.614	32.317	16.375	4.625	8.625
 322	81.573	73.869	86.954	76.75	54.125	73.125
 323	85.991	49.387	48.206	69.125	24.375	28.625
 324	28.062	87.906	19.654	39.25	53.875	26.75
 325	68.992	17.993	85.124	37.875	18.625	53.125
 326	100	66.147	100	104.5	55.375	94.625
 327	33.358	64.806	84.517	26	39.875	59.375
 328	41.351	17.736	80.522	14	14.5	43.75
 329	100	100	88.719	134.5	94.75	97.875
 330	66.336	0	44.32	32.75	6.625	16
 331	64.85	67.09	12.293	49.5	31.75	18.625
 332	15.262	31.268	63.277	6	12.25	26.5
 333	15.008	43.663	37.3	9.125	13.625	13.125
 334	0	57.895	38.078	13.5	22.625	17.25
 335	66.599	58.458	67.871	47	32.25	42.5
 336	59.191	18.651	15.215	26.5	5.25	6.25
 337	66.781	31.14	84.629	37.875	21.875	54.125
 338	88.033	85.158	52.14	95.25	60	47.5
 339	36.882	100	100	56.5	91.625	103.625
 340	26.102	33.094	17.006	8.625	7.25	5.375
 341	56.309	36.861	35.862	27.875	12.125	14.125
 342	45.839	65.587	67.033	32.75	36	41.5
 343	83.709	81.172	16.406	83.875	49.625	29.625
 344	0	48.132	13.005	9	14.125	7.5
 345	87.176	50.021	100	72.625	40.75	86.125
 346	51.219	84.244	13.73	49	49.75	25.5
 347	60.606	71.415	48.406	48.375	39.125	32.375
 348	0	11.359	12.718	0.75	1.25	1.625
 349	86.429	49.705	33.145	69.25	22.75	21.75
 350	34.056	40.958	100	16	30	75.25
 351	100	30.557	59.628	88.5	20.25	36.25
 352	88.497	26.902	13.449	65.375	11.125	12.625
 353	14.167	51.98	88.218	13.375	30.5	58.75
 354	13.784	12.983	49.37	2.625	5.125	14.5
 355	15.018	88.441	48.062	36.375	57.25	37.625
 356	87.79	25.769	89.215	65.25	24.875	63.875
 357	0	33.206	55.865	4.625	11.25	21
 358	74.324	76.029	35.536	66.875	43.75	30.375
 359	65.863	57.223	42.324	45	26	23.875
 360	30.893	54.646	13.136	18.25	19.125	10.375
 361	0	34.36	28.321	4.625	8	7.5
 362	15.443	77.087	85.116	28.375	52	65.5
 363	63.381	68.947	68.521	49.875	41.125	46.625
 364	69.733	27.566	42.917	39.125	11.125	17.875
 365	32.754	100	42.76	53.375	75.25	43.875
 366	47.096	29.481	34.829	19.125	8.5	11.25
 367	8.5451	71.948	62.695	22.875	39.375	38.5
 368	0	86.048	29.3	32.5	51	27.375
 369	53.697	51.572	85.367	32.125	31.25	57.875
 370	17.608	56.69	12.515	14.875	20.125	10.25
 371	90.638	14.414	49.227	67.75	12.125	24.5
 372	63.248	63.64	89.55	47.25	43.125	69
 373	100	85.976	58.455	119.75	64.875	55.875
 374	9.8311	28.027	7.5567	3.875	4.75	2.875
 375	89.831	64.313	69.506	83.25	40.75	50.875
 376	31.754	12.995	25.543	7.5	2.875	5.25
 377	75.914	45.966	64.957	52.625	24.25	37.625
 378	7.5735	50.695	58.941	11.125	21.25	27.375
 379	100	69.835	58.912	105.5	45.625	47.625
 380	32.211	34.376	48.339	11.75	11.125	17.375
 381	13.901	12.159	73.555	3	10.25	33.875
 382	87.071	9.028	77.653	61.625	17.5	47.625
 383	23.272	85.409	84.29	36.5	62.125	68.375
 384	93.289	39.48	26.145	76.875	17.625	18.5
 385	65.769	59.63	30.967	46	26.75	19.875
 386	100	32.265	41.803	88.25	17.625	25.25
 387	86.568	85.281	86.961	93.375	68.75	80.75
 388	52.577	86.83	30.016	52.625	54.5	30.875
 389	47.921	40.199	76.902	23.25	21.5	44.25
 390	22.36	86.619	61.58	36.625	57	46
 391	52.232	33.601	88.787	25.125	22.875	58.125
 392	0	28.523	86.267	4.375	17.75	50.5
 393	43.497	67.879	39.551	32.25	33	23.875
 394	39.877	45.261	0	18.75	13.25	7.25
 395	86.94	12.43	24.699	60.5	8.375	12.875
 396	28.363	55.339	90.398	19.125	34.25	63.75
 397	39.018	70.534	57.879	31.5	38	35.375
 398	12.833	28.519	78.828	5.25	15.5	41.625
 399	68.35	31.815	69.975	39.5	17.875	38
 400	56.52	26.226	41.626	26	9	15
 401	12.938	46.218	0	9.375	12.75	6.125
 402	8.6938	60.179	26.117	15.375	23.375	13.875
 403	51.995	89.429	96.608	56	74.75	92
 404	46.905	47.746	48.909	24.625	19.125	22.25
 405	14.352	81.814	19.479	30.375	45	22.5
 406	71.482	38.117	12.273	44	12.875	10.75
 407	86.616	60.785	10.012	74.75	29.5	20.25
 408	71.811	88.979	52.186	74.875	62.375	46.125
 409	43.213	100	72.083	59.75	82.125	66.75
 410	73.92	23.444	8.2853	43.5	7.75	8.25
 411	40.629	85.534	53.423	43.375	55.375	40.625
 412	38.955	52.128	22.885	21.125	18.125	12
 413	46.48	12.229	8.6707	15.75	2.875	3.5
 414	40.855	33.301	22.309	15.75	8.375	7.5
 415	76.365	66.787	61.06	63.5	39.125	41.625
 416	7.5076	12.025	20.59	1.375	1.75	3
 417	85.93	27.031	0	61.75	10.375	10.75
 418	100	87.757	44.06	121.25	64.375	48
 419	41.543	25.624	54.896	14.625	9.75	20.875
 420	59.533	76.669	91.789	51.875	56.5	78
 421	58.226	12.079	28.862	25.125	4.875	8.625
 422	50.514	8.8602	88.281	19.75	16.5	54.25
 423	41.983	0	31.301	12.375	2.875	7.125
 424	28.024	36.455	77.877	11.125	18.625	42.5
 425	12.718	41.027	11.129	7.625	10.125	5.625
 426	26.194	75.573	88.088	29.875	51.5	68.625
 427	28.936	71.474	37.671	27	35.375	23.625
 428	90.497	74.77	26.512	90.125	43.625	30.25
 429	17.514	75.984	41.507	26.75	40.125	26.75
 430	16.621	64.069	68.891	19.5	33.75	40.75
 431	12.42	21.661	36.669	3.25	5	8.75
 432	52.915	46.814	10.465	28.125	15.375	9.75
 433	56.979	91.194	52.49	60.5	63.875	45.25
 434	25.14	52.299	42.419	15.125	19.625	18.25
 435	25.587	6.8296	13.004	4.75	1.25	2.125
 436	55.018	14.818	41.328	22.75	6.375	13.5
 437	93.397	56.942	87.959	85.25	41.25	70.5
 438	28.374	12.057	85.683	7.375	14.625	48.875
 439	78.265	6.7088	92.468	48.75	21.125	64.5
 440	39.694	71.314	6.3658	31.625	33.25	16.625
 441	73.259	45.059	87.294	49.375	30	61.5
 442	26.381	57.692	76.454	18.875	31	46.375
 443	66.587	33.629	31.299	36.875	11.375	13.25
 444	88.523	74.434	46.718	86	45.625	38.5
 445	76.836	59.92	49.912	59.75	30.875	31.25
 446	33.152	90.418	31.148	43.375	58.125	31.875
 447	55.924	53.388	68.505	34.25	27.625	39.5
 448	77.248	91.798	41.448	83.75	65.75	43.25
 449	26.737	89.225	45.445	39.875	57.875	36.875
 450	87.642	100	25.942	109.75	79.625	45.75
 451	68.631	100	40.532	81.5	78	47.375
 452	14.485	50.449	49.078	11.75	19.375	21
 453	10.654	10.664	89.702	2.875	15.375	53.25
 454	31.962	49.108	62.92	16.875	21.875	31.25
 455	8.6779	22.468	68.278	3.375	10.75	29.75
 456	74.727	90.586	6.3447	79.375	60.625	32.375
 457	0	12.136	44.106	1	4	11.25
 458	43.35	78.123	73.61	39.75	50.375	53.875
 459	10.925	11.786	9.5801	1.625	1.25	1.375
 460	15.591	37.386	50.832	7.375	12.375	18.75
 461	10.685	68.959	9.3113	20.5	30.25	14.5
 462	92.017	72.247	12.692	91.375	41.125	26.75
 463	89.839	77.431	73.4	91.875	55.5	61.75
 464	47.45	74.511	18.753	38.75	38.375	20.75
 465	50.097	90.816	69.461	54.375	66.5	58
 466	82.755	34.052	82.994	59.125	24.625	55.875
 467	46.786	72.919	85.794	38.75	48.75	65.75
 468	9.3304	90.457	73.518	37.75	65.125	59
 469	88.59	61.902	22.128	78.125	31.125	22.875
 470	100	61.262	74.222	100.875	41.875	57.75
 471	86.777	8.8992	8.4672	59.75	7.125	9.875
 472	39.582	85.966	11.798	42.625	51	25.125
 473	85.958	0	24.986	58.5	7.25	12.25
 474	80.299	22.552	47.163	51.625	11.75	21.5
 475	7.218	45.128	76.547	9.375	22.375	42.125
 476	55.989	48.521	58.428	31.875	21.875	29.5
 477	50.728	10.774	73.284	19.625	11.75	36
 478	71.269	10.344	11.008	38.125	5.125	7
 479	91.768	45.194	10.385	76.375	19.5	16.625
 480	7.8976	42.553	25.13	7.625	11.625	8.5
 481	54.269	55.846	25.175	33.375	22.125	15.25
 482	41.937	24.646	5.4249	14.125	4.875	3.875
 483	89.502	33.423	70.991	69.375	21.875	44
 484	75.301	54.745	14.159	54.75	22.875	16
 485	76.653	6.2202	65.75	45.875	12.25	32.75
 486	58.072	77.769	7.4688	49.75	41.75	22
 487	27.429	73.801	76.267	28.75	45.875	53.375
 488	39.961	56.279	74.128	24.25	29.75	44.625
