CTI3
DESCRIPTOR	"Calibration Target chart information 3"
ORIGINATOR	"ColorHug Factory"
DEVICE_CLASS	"DISPLAY"
COLOR_REP	"RGB_XYZ"
TARGET_INSTRUMENT	"ColorHug"
INSTRUMENT_TYPE_SPECTRAL	"NO"
LUMINANCE_XYZ_CDM2	"55.274963 36.518097 41.896820"
NORMALIZED_TO_Y_100	"YES"
NUMBER_OF_FIELDS	7
NUMBER_OF_SETS	836
BEGIN_DATA_FORMAT
 SAMPLE_ID	RGB_R	RGB_G	RGB_B	XYZ_X	XYZ_Y	XYZ_Z
END_DATA_FORMAT
BEGIN_DATA
 1	100	100	100	151.125	99.625	114.125
 2	100	100	100	151.375	99.5	114.5
 3	100	100	100	150.125	99.75	114.5
 4	100	100	100	151.125	100	114.5
 5	33.33	32.622	30.968	12.5	8	8.625
 6	100	0	100	95.875	27.625	80.75
 7	100	100	0	148.75	81.375	47.375
 8	0	100	100	52	90.25	100
 9	0	100	0	50.25	71.375	32.5
 10	0	0	100	2.25	18.125	66.875
 11	100	0	0	95.25	9.25	13.875
 12	0	0	0	0.125	0	0
 13	0	52.455	100	13.25	34.5	74.125
 14	100	0	50.3	94.625	13	27.375
 15	100	54.739	100	110.25	45.625	89.5
 16	100	52.128	0	106	25.25	21.375
 17	0	0	46.181	0.375	3	10.875
 18	0	51.141	0	10.875	15.25	7
 19	0	100	51.348	49.875	76.125	47
 20	100	100	52.037	150	85.625	62.25
 21	49.216	0	0	18.75	1.875	2.75
 22	56.159	100	0	75.375	73.625	36.25
 23	49.226	100	100	70.625	92.125	103.125
 24	44.487	0	100	16.875	19.75	69
 25	100	44.498	52.029	103.625	24.75	33.875
 26	48.926	48.544	100	30.25	33.875	76.125
 27	51.368	100	47.25	71	77.125	47.875
 28	49.893	0	49.033	19.875	5.375	15.625
 29	53.109	51.372	0	33.375	17.625	10.375
 30	0	58.587	53.943	15.125	24.875	25.25
 31	100	28.065	100	99.25	32.25	83.5
 32	0	0	72.874	1	8.25	30.25
 33	0	26.758	100	4.5	22.25	68.625
 34	0	25.426	0	2.5	3.5	1.625
 35	72.508	0	100	45.875	22.625	73.75
 36	100	27.395	0	97.5	13.25	15.75
 37	74.47	100	100	100.625	94	106.375
 38	100	0	25.728	94.75	10.125	17.125
 39	73.862	0	0	46.125	4.5	6.75
 40	100	100	25.402	148.875	82	50.25
 41	0	75.751	100	28.25	54.875	84.25
 42	0	75.172	0	25.625	36	16.5
 43	0	100	25.864	49.75	72.125	35.75
 44	100	0	74.801	95.125	18.125	46.75
 45	0	100	75.421	50.625	80.5	66.75
 46	24.577	0	0	4.375	0.375	0.625
 47	26.321	100	0	54.375	71.25	33.125
 48	100	75.835	0	123.625	46.5	31.25
 49	100	100	77.061	149.5	90.875	82.5
 50	71.263	100	0	93.125	75.5	39.25
 51	0	0	15.614	0.125	0.375	1.25
 52	0	30.049	70.936	4.25	12.75	30.75
 53	100	77.691	100	124.875	67.375	99
 54	24.486	100	100	56.5	90.75	100.5
 55	100	62.784	31.909	112.5	34.75	30.25
 56	29.552	0	100	8.25	18.875	68
 57	32.98	70.921	100	32.375	50.75	82.75
 58	0	27.681	40.241	3.25	6.375	10
 59	67.901	71.021	100	63.125	54.25	87.25
 60	28.154	100	67.829	55.5	79.25	59.75
 61	71.637	100	70.001	95.375	84	68
 62	58.822	58.763	53.586	42.5	27.625	28.875
 63	33.466	30.48	0	11.75	5.75	3.5
 64	100	73.795	71.277	122.625	52.5	59.75
 65	68.394	29.692	0	42	8.5	7.875
 66	70.399	0	29.039	41.25	5.25	10.25
 67	28.078	0	26.956	5.875	1.5	4.375
 68	28.532	72.339	0	29.25	33.5	16.125
 69	100	30.941	26.496	98.875	15.5	19.875
 70	34.597	0	73.611	9.625	9.375	32.625
 71	71.573	0	72.408	43.625	12.625	36.625
 72	0	71.029	29.412	22.75	33	19
 73	68.386	75.008	0	64.875	39.875	22.375
 74	68.088	27.309	100	43	26.375	74.375
 75	100	26.457	73.749	97.5	22	47.875
 76	74.344	100	27.392	98.375	77	43.625
 77	27.558	100	28.197	55.625	73.125	37.625
 78	31.196	27.465	100	11.75	23.25	69.75
 79	0	75.521	72.824	26.875	44.625	47.625
 80	0	50.93	25.553	10.75	16	10.25
 81	32.06	33.584	64.033	12.625	13.25	26.875
 82	81.666	55.38	0	71.5	24	17
 83	68.257	32.751	58.286	43.625	14.875	27
 84	0	55.248	81.585	13.875	29.125	48.75
 85	73.781	52.099	100	59	38.875	81.625
 86	100	50.537	82.952	106.5	35.875	63.5
 87	23.55	0	50.439	4.5	4	13.875
 88	31.335	62.746	31.114	24.5	26.25	16.875
 89	100	18.31	49.418	95.625	14.75	27.75
 90	26.498	48.404	0	14.75	14	7
 91	47.91	100	85.744	68.875	86.125	80.875
 92	71.829	47.313	31.811	52.75	18.625	17.5
 93	31.304	64.132	69.316	26	33.375	40
 94	80.403	0	54.321	55.875	9.875	24.125
 95	18.455	50.036	100	14.625	33.125	74
 96	50.653	100	16.345	69.375	73.5	37.125
 97	80.121	100	52.261	107.125	81.625	55.875
 98	0	22.54	19.289	2.125	3.25	3.25
 99	100	75.273	46.886	122.125	48.875	42.25
 100	0	78.618	56.625	28.75	44.875	35.75
 101	51.137	80.627	100	52.125	63	89.625
 102	48.446	0	17.864	18	2.25	4.375
 103	100	50.023	21.211	105.125	24.5	23
 104	50.115	20.118	0	21	4.125	3.875
 105	58.099	72.426	33.158	50.375	36.875	24.625
 106	19.364	100	50.197	52.5	75.875	46.625
 107	50.683	19.177	100	23.25	22.125	71.125
 108	53.37	0	81.576	23.625	13.25	44
 109	47.768	76.245	0	44	39.125	19.625
 110	0	18.927	55.503	1.875	6.5	17.25
 111	0	13.277	0	0.75	1	0.5
 112	72.862	72.473	75.625	69	46.625	55.625
 113	100	13.904	0	94.625	10.25	14.25
 114	86.349	0	100	67.625	24.875	76.875
 115	100	41.941	100	102.875	37.75	85.375
 116	100	81.785	16.464	127.25	53.625	35.75
 117	0	44.063	52.596	8.375	15.25	20
 118	0	0	58.917	0.625	5.125	18.75
 119	59.25	24.551	29.789	30.75	7.25	10
 120	82.73	82.874	100	94.25	69.875	97.25
 121	80.039	0	12.618	55.25	5.75	9
 122	60.957	47.729	77.817	40	26.125	46.875
 123	100	0	38.618	94.125	11.25	21.375
 124	0	40.09	100	8.25	27.5	71
 125	0	15.283	82.322	2	12.5	41.25
 126	17.592	81.726	100	35.125	62.5	87.625
 127	100	14.13	100	96.25	28.625	81.75
 128	15.261	100	82.059	52.125	82.75	74.125
 129	47.77	79.418	60.389	47	48	41.25
 130	18.768	16.429	0	3.625	1.75	1.125
 131	55.634	100	65.763	74.375	80.75	61.125
 132	100	100	38.541	147.75	82.875	55
 133	17.421	0	83.497	3.375	11.75	42.75
 134	17.237	16.758	100	5.125	20	67.875
 135	0	15.067	30.039	1.125	2.5	5
 136	0	0	86.505	1.5	12.5	46.125
 137	75.736	72.799	50.02	73.375	41.75	36
 138	100	83.323	85.529	129.75	68	81.625
 139	100	100	64.894	147.875	87.25	70.875
 140	81.98	84.914	0	93.625	53.125	30.625
 141	0	63.757	15.49	17.625	24.875	12.625
 142	49.514	66.135	100	39.875	47.125	82.625
 143	100	0	61.862	94.375	15	35
 144	24.308	45.41	49.831	12.875	15.875	19.375
 145	15.963	0	17.047	2	0.625	1.875
 146	87.497	100	100	121.25	96.375	110
 147	52.099	25.003	75.752	24.375	14.625	38.75
 148	14.909	81.162	0	32	43.25	20
 149	0	34.792	14.626	4.875	7	4.25
 150	48.39	45.075	22.552	26.375	14.125	10.5
 151	83.545	65.965	100	82.125	51.375	87.875
 152	16.226	62.345	0	18.625	23.5	11.125
 153	63.222	0	14.914	32.25	3.625	6
 154	80.449	13.446	0	55.875	6.625	8.75
 155	83.917	41.562	0	67.875	15.75	13.5
 156	100	60.448	46.3	111.125	34.625	35.5
 157	15.584	0	34.795	2	1.875	6.25
 158	17.144	65.121	100	22.625	45.25	80
 159	83.602	55.334	62.667	74.75	30.375	39.625
 160	0	82.19	14.22	31.375	44.625	21.5
 161	25.132	74.856	50.616	30.25	39.75	30.75
 162	0	13.769	100	2.5	19.375	67.75
 163	87.181	0	0	67	6.625	9.875
 164	0	100	39.19	49.25	73.125	40.25
 165	78.047	65.914	19.865	71.875	32.625	22.125
 166	100	63.961	15.865	112.375	34.75	27
 167	100	45.955	36.032	103.125	23.375	26.125
 168	15.926	100	16.89	50.875	71.5	34.25
 169	41.459	100	0	62.25	72.625	34.375
 170	48.707	37.288	48.139	24.25	13.125	18.625
 171	83.381	100	13.285	111.75	77.625	42.75
 172	78.129	25.303	75.621	55.375	18	43.25
 173	12.396	0	0	1.25	0.125	0.25
 174	37.607	48.336	83.346	21.25	26.375	50.25
 175	35.588	15.356	0	10.125	2.375	2.125
 176	61.245	100	100	82.125	92.875	104.375
 177	100	67.29	87.195	115.5	50.25	74.875
 178	0	0	30.615	0.25	1.25	4.625
 179	35.187	81.789	83.323	40.75	56.75	64.375
 180	39.525	80.194	22.879	40.875	43.625	23.5
 181	50.634	34.593	0	24.75	8.625	6
 182	14.175	100	63.146	51	76.875	55.5
 183	83.493	17.728	34.574	61.75	9.375	15.75
 184	23.463	22.014	79.943	6.875	13.625	40.25
 185	18.066	31.847	0	6.5	5.75	3
 186	87.201	100	81.361	119.375	88.75	83.25
 187	0	100	87.95	50.25	84.875	81.25
 188	34.476	17.888	46.22	10.125	5.75	13.125
 189	18.277	0	67.39	3.125	7.125	25.875
 190	100	87.972	0	133.5	61.875	38.125
 191	82.925	34.85	100	66.25	31.25	79.25
 192	0	88.016	100	38.375	70.25	91.25
 193	36.104	85.655	100	45.625	68.75	91.75
 194	60.981	0	0	29.25	3	4.375
 195	51.466	61.826	78.106	38	35.25	50.375
 196	78.427	31.983	22.175	56.125	11.5	12.875
 197	66.017	44.321	0	43.5	14.875	10.5
 198	83.941	0	84.177	62.5	18	52.625
 199	20.158	46.612	23.269	11.75	13.5	8.875
 200	0	100	62.618	49.5	77	54.125
 201	33.832	0	13.933	8.25	1.125	2.375
 202	100	17.286	16.322	94	11.25	15.875
 203	0	42.204	83.926	8.375	22	48.375
 204	0	87.774	0	36.125	51	23.625
 205	64.988	0	59.017	34.5	8.625	24.125
 206	14.677	0	100	3.375	18.375	67.75
 207	88.934	82.673	35.021	101.625	53.125	37.25
 208	0	63.778	100	19.375	43.25	78.875
 209	83.429	17.674	100	62.75	26.125	77
 210	30.899	100	85.668	57.5	84.625	79.875
 211	83.68	0	41.016	61	8.5	17.625
 212	100	63.515	0	112	33.75	25.125
 213	85.074	69.987	0	85.5	37	23.5
 214	20.801	45.524	69.018	12.375	19.75	33.125
 215	21.382	82.482	73.017	35.75	53.625	52.625
 216	100	15.128	64.249	94.125	16.75	37.625
 217	36.522	0	58.427	10.25	6	19.875
 218	22.466	81.296	33.007	34.5	45.125	26
 219	62.531	87.152	0	67.5	53.75	28.125
 220	84.12	85.397	67.886	97.625	61.875	58.25
 221	18.87	27.336	45.389	5.875	7.25	13
 222	66.439	100	14.444	86.25	75.125	39
 223	41.636	22.147	19.003	15	4.5	5.125
 224	61.271	100	81.94	80.75	85.75	78.5
 225	86.013	100	0	116.875	77.875	42.5
 226	37.57	0	0	10.125	1	1.5
 227	100	16.132	84.102	94.625	22.625	58.125
 228	0	100	13.619	48.625	71.125	33.375
 229	38.905	100	56.471	60.75	76.75	51.375
 230	100	15.382	34.563	94.125	12.25	20.375
 231	36.656	14.908	100	12.5	20.625	69.25
 232	0	62.593	66.608	17.5	30.5	35.875
 233	66.347	12.528	100	38	22.75	72.875
 234	100	43.375	69.233	101.125	27.625	46.5
 235	100	56.36	61.236	106.875	33.75	43.625
 236	0	86.194	44.955	35	52	33.375
 237	64.527	87.262	100	71.125	72.625	95.75
 238	34.411	0	42.471	8.75	3.375	10.5
 239	80.23	59.707	85.12	71.5	39.5	63.125
 240	20.625	19.056	14.791	4.625	2.625	2.625
 241	15.341	34.221	100	8.25	25.125	70.375
 242	36.777	0	87.905	11	14.125	50.25
 243	34.598	56.247	100	24	38.375	77.625
 244	20.86	67.629	17.418	23.25	28.75	15
 245	44.958	60.843	18.054	31.25	24.375	14.25
 246	37.421	60.193	0	25.875	22.625	11.625
 247	84.011	33.849	42.612	65.875	15.125	21.5
 248	17.241	60.339	37.743	17.875	24	17.75
 249	50.65	17.261	53.278	21.5	7.875	19
 250	45.505	48.926	65.152	26.375	22.125	32.75
 251	44.567	84.081	39.649	48	50.625	31.875
 252	100	86.339	72.054	131.875	67.375	67.75
 253	68.14	61.135	0	54.125	26.25	16
 254	17.93	66.986	81.403	22.875	38.875	53.125
 255	39.242	60.215	48.926	27.625	26.625	24.375
 256	20.099	18.77	62.967	5	8.25	23.375
 257	34.553	100	14.582	57.75	72.25	34.75
 258	87.345	0	66.694	67.125	13.625	35.25
 259	0	43.714	39.842	8	13.125	13.25
 260	100	37.705	13.955	98.75	17.625	18.5
 261	31.265	86.993	0	42.125	51.25	24.125
 262	51.402	82.661	81.338	52.625	57.5	64.25
 263	100	100	12.984	145.875	81.25	47.625
 264	0	37.859	0	5.75	8	3.75
 265	62.092	58.215	100	46.5	41.875	81.375
 266	86.186	100	64.1	116.625	84.625	66.25
 267	100	35.251	85.898	98.875	28.875	62.875
 268	63.182	89.992	41.974	71.25	60.625	39.25
 269	13.504	100	0	50.375	71	32.625
 270	100	0	13.228	92.625	9.375	14.625
 271	63.881	40.826	100	41.125	31.5	76.875
 272	69.387	84.838	20.792	73.375	52	29.875
 273	0	70.279	45.136	22.125	33.875	25.125
 274	79.094	64.754	40.908	71.125	33.375	28.375
 275	62.385	54.099	17.396	43.375	20.625	14.125
 276	64.408	14.621	0	34	4.625	5.5
 277	70.028	15.606	44.651	41.125	8.25	16.875
 278	0	63.544	0	17.25	24.375	11.375
 279	83.475	47.274	20.502	69	19.5	17
 280	55.866	0	32.671	24.75	3.875	9
 281	58.007	0	100	28	20.875	71.375
 282	100	0	87.698	93.5	22.375	62.25
 283	0	13.792	67.215	1.5	8.125	26
 284	84.123	17.001	58.549	62.25	12.875	28.625
 285	59.579	32.873	15.966	32	9.125	8.25
 286	10.41	32.998	28.659	5.375	7.25	7.125
 287	17.231	40.031	85.65	9.875	21.875	49.875
 288	37.568	41.561	10.108	17.125	10.75	6.625
 289	0	69.015	85.092	21.875	41.875	58.25
 290	14.442	100	36.187	51	73.25	39.375
 291	100	40.549	0	99.875	18.625	18
 292	82.143	45.435	78.429	67	27.875	50.75
 293	52.674	0	67.3	22.25	9.25	28.75
 294	0	87.868	66.793	37	59	49.75
 295	86.53	100	40.524	116.375	80.5	50.875
 296	71.777	85.586	67.232	78.375	60.125	54.75
 297	43.216	100	31.671	63.25	74.25	39.75
 298	39.245	32.908	85.845	16.875	19.625	49.875
 299	0	45.662	67.543	9.25	19.375	31.75
 300	12.161	100	100	51.5	89.375	100.5
 301	67.049	0	85.516	37.125	16	50.875
 302	100	89.041	100	135.875	82.25	106.75
 303	20.246	60.698	56.526	19.125	27.25	28.25
 304	52.177	55.457	40.416	34.5	22.75	20.125
 305	72.617	87.018	83.932	80.5	67.25	73.875
 306	40.512	16.723	66.475	14	9.625	27.5
 307	68.507	49.232	50.605	48.125	21.75	26.125
 308	65.622	100	54.525	84.875	79.5	54.375
 309	54.115	37.24	66.394	28.625	16.875	32
 310	100	76.138	31.267	121	48	36.125
 311	54.728	65.623	0	41.75	28.625	15.625
 312	63.126	12.526	64.37	33	10.5	28.625
 313	72.827	18.08	23.704	45.125	7	10.125
 314	23.268	15.278	34.947	5.125	3.375	7.375
 315	87.648	68.954	59.645	89.375	41.625	43.875
 316	0	85.595	85.198	35.375	61.375	68
 317	35.798	84.371	69.21	43.25	55.375	50.875
 318	36.062	47.494	35.919	18.875	15.875	14
 319	86.083	36.277	59.152	69.625	19.25	32.25
 320	58.21	100	30.361	76.375	75.125	41.125
 321	46.745	14.614	32.317	17.5	4.375	8.25
 322	81.573	73.869	86.954	83.375	53.125	71.625
 323	85.991	49.387	48.206	75.125	23.875	28.375
 324	28.062	87.906	19.654	41.875	52.125	26.625
 325	68.992	17.993	85.124	41.125	18	51.375
 326	100	66.147	100	114.625	54.875	93.5
 327	33.358	64.806	84.517	27.625	38.5	57.375
 328	41.351	17.736	80.522	14.875	13.875	42.125
 329	100	100	88.719	146.125	93.5	96.625
 330	66.336	0	44.32	35.5	6.5	15.625
 331	64.85	67.09	12.293	53.75	31.5	18.625
 332	15.262	31.268	63.277	6.125	11.625	25.125
 333	15.008	43.663	37.3	9.625	13	12.5
 334	0	57.895	38.078	14.25	21.875	16.625
 335	66.599	58.458	67.871	50.75	31.5	41.125
 336	59.191	18.651	15.215	28.75	5.125	6.25
 337	66.781	31.14	84.629	41.125	21.125	51.875
 338	88.033	85.158	52.14	103.875	59.375	47.125
 339	36.882	100	100	60.875	90.75	101.625
 340	26.102	33.094	17.006	9.125	6.875	5.125
 341	56.309	36.861	35.862	30.125	11.75	13.75
 342	45.839	65.587	67.033	35	35.125	39.875
 343	83.709	81.172	16.406	91.5	49.375	30.25
 344	0	48.132	13.005	9.375	13.5	7.125
 345	87.176	50.021	100	79	39.875	84.25
 346	51.219	84.244	13.73	52.5	48.625	25.5
 347	60.606	71.415	48.406	52	38.625	31.875
 348	0	11.359	12.718	0.625	1	1.375
 349	86.429	49.705	33.145	75.375	22.375	22
 350	34.056	40.958	100	16.875	28.875	73.25
 351	100	30.557	59.628	96.5	19.875	36
 352	88.497	26.902	13.449	71.625	11.125	13
 353	14.167	51.98	88.218	14	29.25	56.625
 354	13.784	12.983	49.37	2.625	4.75	13.5
 355	15.018	88.441	48.062	38.625	55.875	36.75
 356	87.79	25.769	89.215	70.625	24.125	62
 357	0	33.206	55.865	4.75	10.75	19.75
 358	74.324	76.029	35.536	72.125	43.125	30.25
 359	65.863	57.223	42.324	48.875	25.5	23.375
 360	30.893	54.646	13.136	19.375	18.625	10.25
 361	0	34.36	28.321	4.75	7.625	7
 362	15.443	77.087	85.116	29.875	50.5	63.375
 363	63.381	68.947	68.521	53.125	39.875	45.375
 364	69.733	27.566	42.917	42.625	10.75	17.375
 365	32.754	100	42.76	56.625	74.125	43.25
 366	47.096	29.481	34.829	20.5	8.125	10.75
 367	8.5451	71.948	62.695	24.25	38.75	36.875
 368	0	86.048	29.3	34.5	50.375	27
 369	53.697	51.572	85.367	34.25	30.25	55.375
 370	17.608	56.69	12.515	15.625	19.5	10
 371	90.638	14.414	49.227	73.5	12	24.25
 372	63.248	63.64	89.55	50.375	42.125	67.125
 373	100	85.976	58.455	129.5	63.875	56
 374	9.8311	28.027	7.5567	4	4.5	2.625
 375	89.831	64.313	69.506	90.625	40.125	50.375
 376	31.754	12.995	25.543	7.875	2.75	4.875
 377	75.914	45.966	64.957	57	23.625	36.75
 378	7.5735	50.695	58.941	11.625	20.375	26.25
 379	100	69.835	58.912	115.75	45.125	47.375
 380	32.211	34.376	48.339	12.5	10.75	16.625
 381	13.901	12.159	73.555	3	9.625	32.125
 382	87.071	9.028	77.653	67.5	17.125	46.5
 383	23.272	85.409	84.29	38.875	61.125	67
 384	93.289	39.48	26.145	83.875	17.375	18.875
 385	65.769	59.63	30.967	49.75	26.375	19.875
 386	100	32.265	41.803	96.375	17.625	25.5
 387	86.568	85.281	86.961	101.375	68.375	79.75
 388	52.577	86.83	30.016	56.5	53.125	30.875
 389	47.921	40.199	76.902	25.125	20.75	42.625
 390	22.36	86.619	61.58	39.125	55.875	44.75
 391	52.232	33.601	88.787	27	22	56
 392	0	28.523	86.267	4.375	17	48.125
 393	43.497	67.879	39.551	34.375	32.375	23.375
 394	39.877	45.261	0	20	12.875	7.25
 395	86.94	12.43	24.699	66.25	8.375	13.25
 396	28.363	55.339	90.398	20	33.125	61.75
 397	39.018	70.534	57.879	33.5	37.125	34.5
 398	12.833	28.519	78.828	5.375	14.75	39.875
 399	68.35	31.815	69.975	42.75	17.25	36.5
 400	56.52	26.226	41.626	27.875	8.75	14.5
 401	12.938	46.218	0	9.75	12.25	5.875
 402	8.6938	60.179	26.117	16.125	22.75	13.5
 403	51.995	89.429	96.608	60	72.875	90
 404	46.905	47.746	48.909	26.125	18.25	21.375
 405	14.352	81.814	19.479	32.25	44.125	22.125
 406	71.482	38.117	12.273	47.875	12.625	10.875
 407	86.616	60.785	10.012	81.25	29	20.5
 408	71.811	88.979	52.186	80.625	61.75	45.75
 409	43.213	100	72.083	63.875	81.25	65.25
 410	73.92	23.444	8.2853	47	7.625	8.5
 411	40.629	85.534	53.423	46.375	53.875	39.5
 412	38.955	52.128	22.885	22.375	17.625	11.625
 413	46.48	12.229	8.6707	16.75	2.75	3.375
 414	40.855	33.301	22.309	16.75	8	7.125
 415	76.365	66.787	61.06	68.375	38.375	40.625
 416	7.5076	12.025	20.59	1.375	1.5	2.75
 417	85.93	27.031	0	66.875	10.25	11.25
 418	100	87.757	44.06	129.75	64	48
 419	41.543	25.624	54.896	15.625	9.375	19.75
 420	59.533	76.669	91.789	55.875	55	76.25
 421	58.226	12.079	28.862	27.125	4.75	8.5
 422	50.514	8.8602	88.281	21	16	52.5
 423	41.983	0	31.301	13.25	2.625	6.875
 424	28.024	36.455	77.877	11.625	17.875	40.375
 425	12.718	41.027	11.129	8	9.75	5.375
 426	26.194	75.573	88.088	31.875	49.875	66.75
 427	28.936	71.474	37.671	28.875	34.75	23.125
 428	90.497	74.77	26.512	98.25	43.5	30.5
 429	17.514	75.984	41.507	28.375	39.5	26.25
 430	16.621	64.069	68.891	20.5	32.75	39
 431	12.42	21.661	36.669	3.375	4.625	8.25
 432	52.915	46.814	10.465	30.25	15	9.75
 433	56.979	91.194	52.49	64.75	63.5	44.625
 434	25.14	52.299	42.419	16.125	19.125	17.5
 435	25.587	6.8296	13.004	5	1.125	1.875
 436	55.018	14.818	41.328	24.5	6.125	13
 437	93.397	56.942	87.959	93.75	40.875	69.625
 438	28.374	12.057	85.683	7.625	13.875	47
 439	78.265	6.7088	92.468	52.5	20.5	62.5
 440	39.694	71.314	6.3658	33.875	33	16.625
 441	73.259	45.059	87.294	53	29.125	59.875
 442	26.381	57.692	76.454	20.125	29.875	44.875
 443	66.587	33.629	31.299	39.875	11.125	13
 444	88.523	74.434	46.718	93.875	45.125	38.25
 445	76.836	59.92	49.912	64.5	30.125	30.625
 446	33.152	90.418	31.148	46.375	57.125	31.5
 447	55.924	53.388	68.505	36.75	26.625	38.375
 448	77.248	91.798	41.448	90.875	65.25	43
 449	26.737	89.225	45.445	42.75	56.75	36
 450	87.642	100	25.942	118	78.875	46.125
 451	68.631	100	40.532	88.5	77.75	47
 452	14.485	50.449	49.078	12.25	18.5	20
 453	10.654	10.664	89.702	2.75	14.625	51
 454	31.962	49.108	62.92	17.75	21	29.875
 455	8.6779	22.468	68.278	3.375	10.125	28
 456	74.727	90.586	6.3447	85.75	60	32.625
 457	0	12.136	44.106	1	3.625	10.5
 458	43.35	78.123	73.61	42.25	49.75	51.875
 459	10.925	11.786	9.5801	1.625	1.125	1.25
 460	15.591	37.386	50.832	7.75	11.875	17.625
 461	10.685	68.959	9.3113	21.625	29.5	14.25
 462	92.017	72.247	12.692	99.25	40.625	27.375
 463	89.839	77.431	73.4	100.25	54.25	60.375
 464	47.45	74.511	18.753	41.375	37.625	20.625
 465	50.097	90.816	69.461	58.625	65.375	56.5
 466	82.755	34.052	82.994	64.375	24	54.5
 467	46.786	72.919	85.794	41.125	47.75	63.75
 468	9.3304	90.457	73.518	39.875	64.125	57.5
 469	88.59	61.902	22.128	85.375	30.5	23.25
 470	100	61.262	74.222	109.75	40.75	57.375
 471	86.777	8.8992	8.4672	66.125	7.25	10.375
 472	39.582	85.966	11.798	45.625	50.5	25.125
 473	85.958	0	24.986	63.875	7.375	12.625
 474	80.299	22.552	47.163	56.625	11.5	21.25
 475	7.218	45.128	76.547	9.75	21.5	40.75
 476	55.989	48.521	58.428	34.25	21.125	28.625
 477	50.728	10.774	73.284	21	11.25	34.625
 478	71.269	10.344	11.008	41.75	5.125	7.25
 479	91.768	45.194	10.385	83	19.5	17.125
 480	7.8976	42.553	25.13	8	11.25	8.125
 481	54.269	55.846	25.175	35.5	21.5	15.125
 482	41.937	24.646	5.4249	15.125	4.625	3.75
 483	89.502	33.423	70.991	75.25	21.5	42.875
 484	75.301	54.745	14.159	59.875	22.75	16.25
 485	76.653	6.2202	65.75	49.125	11.875	32
 486	58.072	77.769	7.4688	53.625	41.625	22.25
 487	27.429	73.801	76.267	30.5	44.5	51.375
 488	39.961	56.279	74.128	25.75	28.875	43.25
