CTI3   

DESCRIPTOR "Argyll Calibration Target chart information 3"
ORIGINATOR "Argyll dispread"
CREATED "Mon Dec 19 14:00:51 2011"
KEYWORD "DEVICE_CLASS"
DEVICE_CLASS "DISPLAY"
KEYWORD "COLOR_REP"
COLOR_REP "RGB_XYZ"
KEYWORD "TARGET_INSTRUMENT"
TARGET_INSTRUMENT "Hughski ColorHug"
KEYWORD "INSTRUMENT_TYPE_SPECTRAL"
INSTRUMENT_TYPE_SPECTRAL "NO"
KEYWORD "LUMINANCE_XYZ_CDM2"
LUMINANCE_XYZ_CDM2 "57.678223 43.945312 51.498413"
KEYWORD "NORMALIZED_TO_Y_100"
NORMALIZED_TO_Y_100 "YES"

NUMBER_OF_FIELDS 7
BEGIN_DATA_FORMAT
SAMPLE_ID RGB_R RGB_G RGB_B XYZ_X XYZ_Y XYZ_Z 
END_DATA_FORMAT

NUMBER_OF_SETS 836
BEGIN_DATA
1 100.00 100.00 100.00 131.25 100.00 117.19 
2 100.00 100.00 100.00 131.77 100.52 116.67 
3 100.00 100.00 100.00 131.77 101.56 115.62 
4 100.00 100.00 100.00 131.77 101.56 115.62 
5 33.330 32.622 30.968 11.979 9.3750 9.8958 
6 100.00 0.0000 100.00 83.854 27.604 80.729 
7 100.00 100.00 0.0000 129.69 84.375 48.438 
8 0.0000 100.00 100.00 47.396 94.271 102.60 
9 0.0000 100.00 0.0000 45.312 75.521 35.417 
10 0.0000 0.0000 100.00 2.6042 19.271 68.229 
11 100.00 0.0000 0.0000 80.208 8.8542 13.542 
12 0.0000 0.0000 0.0000 0.52083 0.52083 0.52083 
13 0.0000 52.455 100.00 13.021 36.458 76.562 
14 100.00 0.0000 50.300 82.292 13.021 27.604 
15 100.00 54.739 100.00 95.833 47.396 90.104 
16 100.00 52.128 0.0000 93.229 26.562 21.354 
17 0.0000 0.0000 46.181 0.52083 3.6458 12.500 
18 0.0000 51.141 0.0000 10.417 16.667 8.3333 
19 0.0000 100.00 51.348 45.312 78.646 51.042 
20 100.00 100.00 52.037 129.17 86.979 65.104 
21 49.216 0.0000 0.0000 16.667 2.0833 3.1250 
22 56.159 100.00 0.0000 67.708 76.042 39.062 
23 49.226 100.00 100.00 64.583 93.750 106.25 
24 44.487 0.0000 100.00 15.625 19.792 70.833 
25 100.00 44.498 52.029 90.104 25.521 34.896 
26 48.926 48.544 100.00 28.125 35.938 77.604 
27 51.368 100.00 47.250 64.062 80.729 50.521 
28 49.893 0.0000 49.033 17.708 5.7292 16.667 
29 53.109 51.372 0.0000 29.688 19.271 11.458 
30 0.0000 58.587 53.943 14.062 27.083 27.083 
31 100.00 28.065 100.00 85.938 32.292 84.375 
32 0.0000 0.0000 72.874 1.5625 9.3750 32.812 
33 0.0000 26.758 100.00 4.6875 22.917 71.354 
34 0.0000 25.426 0.0000 2.6042 4.1667 2.6042 
35 72.508 0.0000 100.00 40.104 22.917 75.521 
36 100.00 27.395 0.0000 83.854 13.542 15.625 
37 74.470 100.00 100.00 89.062 96.354 110.94 
38 100.00 0.0000 25.728 81.771 9.8958 17.188 
39 73.862 0.0000 0.0000 41.146 4.6875 6.7708 
40 100.00 100.00 25.402 130.21 83.854 52.083 
41 0.0000 75.751 100.00 26.562 57.812 86.458 
42 0.0000 75.172 0.0000 24.479 39.062 18.229 
43 0.0000 100.00 25.864 45.833 76.042 38.542 
44 100.00 0.0000 74.801 82.812 18.750 47.396 
45 0.0000 100.00 75.421 46.875 84.896 70.833 
46 24.577 0.0000 0.0000 4.6875 0.52083 1.0417 
47 26.321 100.00 0.0000 49.479 75.521 36.458 
48 100.00 75.835 0.0000 106.25 48.958 32.292 
49 100.00 100.00 77.061 128.65 93.750 86.458 
50 71.263 100.00 0.0000 82.812 79.167 41.667 
51 0.0000 0.0000 15.614 0.52083 0.52083 2.0833 
52 0.0000 30.049 70.936 4.6875 13.542 33.854 
53 100.00 77.691 100.00 109.90 68.229 102.08 
54 24.486 100.00 100.00 51.042 92.188 104.69 
55 100.00 62.784 31.909 98.958 35.938 31.250 
56 29.552 0.0000 100.00 8.3333 18.750 69.792 
57 32.980 70.921 100.00 30.729 53.125 85.417 
58 0.0000 27.681 40.241 3.6458 7.2917 11.458 
59 67.901 71.021 100.00 56.250 56.771 89.062 
60 28.154 100.00 67.829 51.562 83.854 63.021 
61 71.637 100.00 70.001 84.896 87.500 70.833 
62 58.822 58.763 53.586 38.542 30.208 31.250 
63 33.466 30.480 0.0000 11.458 6.7708 4.1667 
64 100.00 73.795 71.277 105.21 54.688 62.500 
65 68.394 29.692 0.0000 36.979 9.3750 8.8542 
66 70.399 0.0000 29.039 36.458 5.7292 10.938 
67 28.078 0.0000 26.956 5.7292 2.0833 5.2083 
68 28.532 72.339 0.0000 27.083 36.458 18.229 
69 100.00 30.941 26.496 84.896 15.625 20.312 
70 34.597 0.0000 73.611 9.3750 9.8958 35.417 
71 71.573 0.0000 72.408 39.062 13.021 38.542 
72 0.0000 71.029 29.412 21.354 34.896 21.354 
73 68.386 75.008 0.0000 58.854 42.188 23.958 
74 68.088 27.309 100.00 38.542 26.562 75.521 
75 100.00 26.457 73.749 85.417 22.396 48.438 
76 74.344 100.00 27.392 88.542 80.729 45.833 
77 27.558 100.00 28.197 51.042 77.083 40.104 
78 31.196 27.465 100.00 11.458 23.958 71.354 
79 0.0000 75.521 72.824 25.000 48.958 51.562 
80 0.0000 50.930 25.553 10.938 17.708 11.979 
81 32.060 33.584 64.033 11.979 14.583 29.167 
82 81.666 55.380 0.0000 63.021 25.521 17.708 
83 68.257 32.751 58.286 38.021 16.146 28.646 
84 0.0000 55.248 81.585 13.542 31.250 52.604 
85 73.781 52.099 100.00 52.604 40.104 84.375 
86 100.00 50.537 82.952 93.229 36.458 66.146 
87 23.550 0.0000 50.439 4.1667 4.6875 15.625 
88 31.335 62.746 31.114 22.917 28.125 18.750 
89 100.00 18.310 49.418 83.333 14.583 28.125 
90 26.498 48.404 0.0000 14.062 15.104 8.3333 
91 47.910 100.00 85.744 62.500 90.104 84.375 
92 71.829 47.313 31.811 47.396 20.312 18.229 
93 31.304 64.132 69.316 24.479 36.458 43.229 
94 80.403 0.0000 54.321 49.479 10.417 25.000 
95 18.455 50.036 100.00 14.062 35.417 76.562 
96 50.653 100.00 16.345 62.500 77.604 40.104 
97 80.121 100.00 52.261 94.792 84.896 59.375 
98 0.0000 22.540 19.289 2.6042 3.6458 3.6458 
99 100.00 75.273 46.886 105.73 51.042 44.792 
100 0.0000 78.618 56.625 27.083 47.917 39.583 
101 51.137 80.627 100.00 47.917 65.104 93.750 
102 48.446 0.0000 17.864 16.667 2.6042 4.6875 
103 100.00 50.023 21.211 92.188 25.521 23.438 
104 50.115 20.118 0.0000 19.271 4.6875 4.1667 
105 58.099 72.426 33.158 45.833 39.583 26.562 
106 19.364 100.00 50.197 48.958 78.646 50.000 
107 50.683 19.177 100.00 21.354 22.917 71.875 
108 53.370 0.0000 81.576 21.354 14.062 45.312 
109 47.768 76.245 0.0000 40.625 42.188 21.354 
110 0.0000 18.927 55.503 2.0833 7.8125 18.750 
111 0.0000 13.277 0.0000 1.0417 1.5625 1.0417 
112 72.862 72.473 75.625 61.458 50.521 58.854 
113 100.00 13.904 0.0000 81.250 10.417 14.062 
114 86.349 0.0000 100.00 59.375 25.000 78.646 
115 100.00 41.941 100.00 88.542 38.542 88.021 
116 100.00 81.785 16.464 111.46 55.729 38.021 
117 0.0000 44.063 52.596 8.3333 16.667 22.396 
118 0.0000 0.0000 58.917 1.0417 5.7292 20.312 
119 59.250 24.551 29.789 27.604 7.8125 10.938 
120 82.730 82.874 100.00 84.896 72.396 100.00 
121 80.039 0.0000 12.618 48.438 5.7292 9.3750 
122 60.957 47.729 77.817 36.979 28.125 49.479 
123 100.00 0.0000 38.618 82.292 11.458 21.354 
124 0.0000 40.090 100.00 8.3333 28.646 72.917 
125 0.0000 15.283 82.322 2.0833 13.542 43.750 
126 17.592 81.726 100.00 33.333 66.667 90.625 
127 100.00 14.130 100.00 83.333 29.167 82.292 
128 15.261 100.00 82.059 47.917 87.500 79.688 
129 47.770 79.418 60.389 42.708 52.083 45.312 
130 18.768 16.429 0.0000 3.6458 2.0833 2.0833 
131 55.634 100.00 65.763 66.667 84.375 65.625 
132 100.00 100.00 38.541 128.65 85.417 57.292 
133 17.421 0.0000 83.497 3.6458 12.500 45.833 
134 17.237 16.758 100.00 5.2083 20.312 70.312 
135 0.0000 15.067 30.039 1.5625 3.1250 6.2500 
136 0.0000 0.0000 86.505 2.0833 13.021 48.958 
137 75.736 72.799 50.020 66.146 44.792 38.542 
138 100.00 83.323 85.529 115.62 70.833 83.333 
139 100.00 100.00 64.894 130.73 90.625 72.917 
140 81.980 84.914 0.0000 83.854 57.292 32.812 
141 0.0000 63.757 15.490 17.188 27.604 14.583 
142 49.514 66.135 100.00 36.458 50.000 84.375 
143 100.00 0.0000 61.862 81.250 15.625 35.938 
144 24.308 45.410 49.831 13.021 17.708 21.354 
145 15.963 0.0000 17.047 2.0833 1.0417 2.6042 
146 87.497 100.00 100.00 106.25 99.479 113.54 
147 52.099 25.003 75.752 21.875 16.146 41.146 
148 14.909 81.162 0.0000 29.688 45.833 22.396 
149 0.0000 34.792 14.626 5.2083 8.3333 5.2083 
150 48.390 45.075 22.552 24.479 15.625 11.458 
151 83.545 65.965 100.00 73.438 52.604 91.146 
152 16.226 62.345 0.0000 18.229 25.521 13.021 
153 63.222 0.0000 14.914 29.167 4.1667 6.2500 
154 80.449 13.446 0.0000 50.000 7.2917 8.8542 
155 83.917 41.562 0.0000 61.458 16.667 14.062 
156 100.00 60.448 46.300 97.917 36.458 36.458 
157 15.584 0.0000 34.795 2.0833 2.6042 7.2917 
158 17.144 65.121 100.00 21.354 47.396 81.771 
159 83.602 55.334 62.667 66.667 32.292 41.667 
160 0.0000 82.190 14.220 29.688 48.438 23.958 
161 25.132 74.856 50.616 28.125 43.229 33.854 
162 0.0000 13.769 100.00 2.6042 20.312 69.792 
163 87.181 0.0000 0.0000 58.333 6.7708 9.8958 
164 0.0000 100.00 39.190 45.312 76.562 44.792 
165 78.047 65.914 19.865 63.542 34.375 23.438 
166 100.00 63.961 15.865 98.958 35.938 27.604 
167 100.00 45.955 36.032 90.104 23.958 26.562 
168 15.926 100.00 16.890 47.917 74.479 37.500 
169 41.459 100.00 0.0000 57.812 75.521 36.979 
170 48.707 37.288 48.139 22.396 14.062 20.312 
171 83.381 100.00 13.285 101.04 81.250 44.792 
172 78.129 25.303 75.621 50.000 18.750 44.792 
173 12.396 0.0000 0.0000 1.5625 0.52083 0.52083 
174 37.607 48.336 83.346 20.312 28.646 53.125 
175 35.588 15.356 0.0000 9.8958 3.1250 2.6042 
176 61.245 100.00 100.00 73.438 96.354 108.33 
177 100.00 67.290 87.195 101.04 53.125 78.125 
178 0.0000 0.0000 30.615 0.52083 2.0833 5.2083 
179 35.187 81.789 83.323 38.021 60.417 69.271 
180 39.525 80.194 22.879 38.021 46.875 26.562 
181 50.634 34.593 0.0000 22.396 9.3750 6.7708 
182 14.175 100.00 63.146 47.396 80.729 59.375 
183 83.493 17.728 34.574 55.208 9.8958 16.146 
184 23.463 22.014 79.943 7.2917 14.062 42.708 
185 18.066 31.847 0.0000 6.7708 6.7708 3.6458 
186 87.201 100.00 81.361 107.81 92.708 86.979 
187 0.0000 100.00 87.950 46.875 89.062 85.417 
188 34.476 17.888 46.220 9.8958 6.2500 14.583 
189 18.277 0.0000 67.390 3.1250 8.3333 27.604 
190 100.00 87.972 0.0000 117.71 65.104 39.583 
191 82.925 34.850 100.00 58.854 32.292 80.729 
192 0.0000 88.016 100.00 36.458 74.479 95.312 
193 36.104 85.655 100.00 42.188 72.396 95.312 
194 60.981 0.0000 0.0000 26.562 3.1250 4.6875 
195 51.466 61.826 78.106 34.375 38.021 53.646 
196 78.427 31.983 22.175 50.000 11.979 13.542 
197 66.017 44.321 0.0000 39.583 15.625 11.458 
198 83.941 0.0000 84.177 55.208 18.229 55.208 
199 20.158 46.612 23.269 11.458 15.104 10.417 
200 0.0000 100.00 62.618 46.354 80.208 58.854 
201 33.832 0.0000 13.933 7.8125 1.5625 2.6042 
202 100.00 17.286 16.322 83.333 11.458 15.625 
203 0.0000 42.204 83.926 8.3333 23.958 50.521 
204 0.0000 87.774 0.0000 33.854 55.208 26.042 
205 64.988 0.0000 59.017 31.250 9.3750 25.521 
206 14.677 0.0000 100.00 3.6458 19.271 68.229 
207 88.934 82.673 35.021 91.667 57.292 39.583 
208 0.0000 63.778 100.00 18.750 45.833 81.771 
209 83.429 17.674 100.00 56.250 26.562 78.646 
210 30.899 100.00 85.668 52.083 88.542 84.896 
211 83.680 0.0000 41.016 53.646 8.8542 18.750 
212 100.00 63.515 0.0000 97.396 34.896 26.562 
213 85.074 69.987 0.0000 76.562 39.062 25.000 
214 20.801 45.524 69.018 11.979 21.354 35.938 
215 21.382 82.482 73.017 33.854 56.771 56.250 
216 100.00 15.128 64.249 83.333 17.188 39.062 
217 36.522 0.0000 58.427 9.8958 6.7708 21.354 
218 22.466 81.296 33.007 32.812 48.438 28.646 
219 62.531 87.152 0.0000 62.500 57.812 30.208 
220 84.120 85.397 67.886 88.542 65.625 60.938 
221 18.870 27.336 45.389 6.2500 8.3333 14.062 
222 66.439 100.00 14.444 78.125 79.688 41.667 
223 41.636 22.147 19.003 14.062 5.2083 5.7292 
224 61.271 100.00 81.940 72.917 90.104 82.812 
225 86.013 100.00 0.0000 103.12 81.771 45.312 
226 37.570 0.0000 0.0000 9.8958 1.5625 2.0833 
227 100.00 16.132 84.102 82.812 22.917 60.417 
228 0.0000 100.00 13.619 44.792 75.000 36.979 
229 38.905 100.00 56.471 55.729 80.729 55.729 
230 100.00 15.382 34.563 82.812 12.500 20.833 
231 36.656 14.908 100.00 11.458 20.833 71.354 
232 0.0000 62.593 66.608 17.188 32.812 39.583 
233 66.347 12.528 100.00 34.375 22.917 74.479 
234 100.00 43.375 69.233 90.104 29.167 47.917 
235 100.00 56.360 61.236 95.833 35.417 44.792 
236 0.0000 86.194 44.955 33.333 56.250 36.458 
237 64.527 87.262 100.00 65.625 76.562 98.438 
238 34.411 0.0000 42.471 8.3333 4.1667 11.458 
239 80.230 59.707 85.120 64.583 41.667 65.625 
240 20.625 19.056 14.791 4.6875 3.6458 3.1250 
241 15.341 34.221 100.00 8.3333 26.042 72.917 
242 36.777 0.0000 87.905 10.417 14.583 53.125 
243 34.598 56.247 100.00 21.875 40.104 80.208 
244 20.860 67.629 17.418 21.875 31.771 17.188 
245 44.958 60.843 18.054 29.167 26.042 16.146 
246 37.421 60.193 0.0000 23.958 24.479 13.021 
247 84.011 33.849 42.612 59.375 15.625 22.917 
248 17.241 60.339 37.743 17.188 26.042 19.792 
249 50.650 17.261 53.278 19.792 8.8542 20.312 
250 45.505 48.926 65.152 24.479 23.958 34.896 
251 44.567 84.081 39.649 44.792 54.167 34.375 
252 100.00 86.339 72.054 117.71 71.354 69.792 
253 68.140 61.135 0.0000 49.479 28.646 17.188 
254 17.930 66.986 81.403 21.875 42.188 56.771 
255 39.242 60.215 48.926 25.521 29.167 27.083 
256 20.099 18.770 62.967 5.2083 9.3750 25.000 
257 34.553 100.00 14.582 52.604 76.562 38.021 
258 87.345 0.0000 66.694 59.375 14.062 36.979 
259 0.0000 43.714 39.842 7.8125 14.583 15.104 
260 100.00 37.705 13.955 85.938 18.229 18.750 
261 31.265 86.993 0.0000 39.583 54.167 27.083 
262 51.402 82.661 81.338 48.958 60.938 68.750 
263 100.00 100.00 12.984 129.69 82.812 50.000 
264 0.0000 37.859 0.0000 6.2500 8.8542 4.6875 
265 62.092 58.215 100.00 43.229 43.229 83.333 
266 86.186 100.00 64.100 105.73 87.500 69.271 
267 100.00 35.251 85.898 87.500 29.688 64.062 
268 63.182 89.992 41.974 64.583 65.104 41.667 
269 13.504 100.00 0.0000 46.875 75.521 35.417 
270 100.00 0.0000 13.228 81.250 9.3750 14.583 
271 63.881 40.826 100.00 36.979 32.292 78.125 
272 69.387 84.838 20.792 66.667 56.250 32.292 
273 0.0000 70.279 45.136 20.833 36.979 27.604 
274 79.094 64.754 40.908 64.062 35.938 30.729 
275 62.385 54.099 17.396 38.542 22.917 15.625 
276 64.408 14.621 0.0000 30.208 5.2083 5.7292 
277 70.028 15.606 44.651 37.500 8.8542 18.229 
278 0.0000 63.544 0.0000 16.667 26.562 13.021 
279 83.475 47.274 20.502 62.500 20.833 18.229 
280 55.866 0.0000 32.671 22.917 4.1667 9.8958 
281 58.007 0.0000 100.00 26.042 21.354 72.396 
282 100.00 0.0000 87.698 83.333 22.396 63.021 
283 0.0000 13.792 67.215 1.5625 8.8542 27.604 
284 84.123 17.001 58.549 56.250 13.021 29.167 
285 59.579 32.873 15.966 29.688 10.417 8.8542 
286 10.410 32.998 28.659 5.7292 8.3333 7.8125 
287 17.231 40.031 85.650 9.3750 23.958 52.604 
288 37.568 41.561 10.108 16.146 12.500 7.8125 
289 0.0000 69.015 85.092 21.354 44.792 62.500 
290 14.442 100.00 36.187 46.354 77.083 43.229 
291 100.00 40.549 0.0000 86.458 18.750 18.750 
292 82.143 45.435 78.429 59.896 29.688 53.646 
293 52.674 0.0000 67.300 20.312 9.3750 31.250 
294 0.0000 87.868 66.793 34.896 61.458 53.646 
295 86.530 100.00 40.524 105.73 82.812 54.167 
296 71.777 85.586 67.232 71.354 63.542 58.333 
297 43.216 100.00 31.671 58.854 77.083 42.708 
298 39.245 32.908 85.845 16.146 20.833 52.604 
299 0.0000 45.662 67.543 9.3750 20.833 33.333 
300 12.161 100.00 100.00 48.958 93.750 102.60 
301 67.049 0.0000 85.516 33.854 17.188 52.083 
302 100.00 89.041 100.00 120.31 84.375 108.33 
303 20.246 60.698 56.526 18.750 29.688 30.729 
304 52.177 55.457 40.416 31.250 25.000 21.875 
305 72.617 87.018 83.932 72.396 70.833 77.604 
306 40.512 16.723 66.475 12.500 10.938 29.688 
307 68.507 49.232 50.605 43.750 23.958 28.125 
308 65.622 100.00 54.525 76.562 82.812 57.812 
309 54.115 37.240 66.394 26.042 17.708 34.375 
310 100.00 76.138 31.267 107.29 49.479 38.021 
311 54.728 65.623 0.0000 38.542 30.208 17.188 
312 63.126 12.526 64.370 30.208 10.938 30.208 
313 72.827 18.080 23.704 41.146 7.2917 10.417 
314 23.268 15.278 34.947 5.2083 4.1667 8.3333 
315 87.648 68.954 59.645 80.729 44.271 45.833 
316 0.0000 85.595 85.198 33.854 65.625 71.354 
317 35.798 84.371 69.210 40.104 59.375 54.167 
318 36.062 47.494 35.919 18.229 17.708 15.104 
319 86.083 36.277 59.152 62.500 20.312 33.854 
320 58.210 100.00 30.361 69.271 79.167 44.792 
321 46.745 14.614 32.317 16.146 5.2083 8.8542 
322 81.573 73.869 86.954 73.958 56.771 76.042 
323 85.991 49.387 48.206 66.667 26.042 30.208 
324 28.062 87.906 19.654 39.062 56.771 29.688 
325 68.992 17.993 85.124 36.979 18.750 54.167 
326 100.00 66.147 100.00 101.56 55.729 96.354 
327 33.358 64.806 84.517 26.042 40.625 60.938 
328 41.351 17.736 80.522 14.062 14.583 44.792 
329 100.00 100.00 88.719 130.73 96.875 100.00 
330 66.336 0.0000 44.320 32.292 6.7708 16.146 
331 64.850 67.090 12.293 48.958 33.333 20.312 
332 15.262 31.268 63.277 6.7708 13.021 26.562 
333 15.008 43.663 37.300 9.8958 14.583 13.542 
334 0.0000 57.895 38.078 14.062 24.479 18.750 
335 66.599 58.458 67.871 46.875 33.333 43.750 
336 59.191 18.651 15.215 26.042 5.2083 6.7708 
337 66.781 31.140 84.629 36.979 22.396 54.688 
338 88.033 85.158 52.140 92.188 63.021 50.521 
339 36.882 100.00 100.00 55.729 94.271 105.73 
340 26.102 33.094 17.006 8.8542 7.8125 5.7292 
341 56.309 36.861 35.862 28.125 13.021 15.104 
342 45.839 65.587 67.033 32.812 38.021 42.708 
343 83.709 81.172 16.406 82.812 52.604 32.292 
344 0.0000 48.132 13.005 9.3750 15.625 8.3333 
345 87.176 50.021 100.00 70.312 41.146 86.458 
346 51.219 84.244 13.730 48.438 52.604 28.125 
347 60.606 71.415 48.406 46.875 40.625 34.375 
348 0.0000 11.359 12.718 1.0417 1.5625 2.0833 
349 86.429 49.705 33.145 67.708 23.958 22.917 
350 34.056 40.958 100.00 16.146 29.688 75.521 
351 100.00 30.557 59.628 85.417 20.312 37.500 
352 88.497 26.902 13.449 64.583 11.458 13.542 
353 14.167 51.980 88.218 14.062 31.250 59.375 
354 13.784 12.983 49.370 3.1250 5.2083 15.104 
355 15.018 88.441 48.062 36.979 60.417 39.583 
356 87.790 25.769 89.215 64.062 25.000 63.542 
357 0.0000 33.206 55.865 4.6875 12.500 21.354 
358 74.324 76.029 35.536 66.146 46.354 32.812 
359 65.863 57.223 42.324 44.792 27.604 25.521 
360 30.893 54.646 13.136 18.229 20.312 11.458 
361 0.0000 34.360 28.321 5.2083 8.3333 8.3333 
362 15.443 77.087 85.116 28.646 54.167 66.146 
363 63.381 68.947 68.521 49.479 43.229 47.917 
364 69.733 27.566 42.917 39.062 11.458 18.750 
365 32.754 100.00 42.760 52.604 79.167 46.354 
366 47.096 29.481 34.829 18.750 9.3750 11.979 
367 8.5451 71.948 62.695 23.438 42.188 40.104 
368 0.0000 86.048 29.300 32.292 54.688 30.208 
369 53.697 51.572 85.367 31.771 32.812 58.854 
370 17.608 56.690 12.515 15.104 21.875 11.979 
371 90.638 14.414 49.227 66.667 12.500 25.521 
372 63.248 63.640 89.550 46.875 44.271 69.792 
373 100.00 85.976 58.455 116.67 67.708 57.812 
374 9.8311 28.027 7.5567 4.1667 5.2083 3.1250 
375 89.831 64.313 69.506 81.250 42.188 52.604 
376 31.754 12.995 25.543 7.8125 3.1250 5.7292 
377 75.914 45.966 64.957 51.562 25.521 39.062 
378 7.5735 50.695 58.941 10.938 22.396 28.646 
379 100.00 69.835 58.912 102.08 46.875 49.479 
380 32.211 34.376 48.339 11.979 11.979 18.229 
381 13.901 12.159 73.555 3.1250 10.417 34.896 
382 87.071 9.0280 77.653 59.896 17.188 48.438 
383 23.272 85.409 84.290 36.979 63.542 70.833 
384 93.289 39.480 26.145 76.042 18.229 19.792 
385 65.769 59.630 30.967 46.354 28.125 21.354 
386 100.00 32.265 41.803 85.938 18.229 26.042 
387 86.568 85.281 86.961 91.146 70.833 84.375 
388 52.577 86.830 30.016 52.083 56.771 33.854 
389 47.921 40.199 76.902 23.438 21.875 44.271 
390 22.360 86.619 61.580 36.979 59.375 48.438 
391 52.232 33.601 88.787 25.000 23.438 58.333 
392 0.0000 28.523 86.267 5.2083 18.229 50.521 
393 43.497 67.879 39.551 32.812 34.375 25.521 
394 39.877 45.261 0.0000 19.271 14.583 7.8125 
395 86.940 12.430 24.699 59.896 8.8542 13.542 
396 28.363 55.339 90.398 19.271 35.417 64.062 
397 39.018 70.534 57.879 31.250 40.625 37.500 
398 12.833 28.519 78.828 5.2083 16.146 42.188 
399 68.350 31.815 69.975 38.021 18.229 39.062 
400 56.520 26.226 41.626 25.000 9.8958 15.625 
401 12.938 46.218 0.0000 9.8958 14.062 6.7708 
402 8.6938 60.179 26.117 15.104 25.000 15.104 
403 51.995 89.429 96.608 55.208 76.042 94.271 
404 46.905 47.746 48.909 24.479 20.312 23.438 
405 14.352 81.814 19.479 30.729 47.396 25.000 
406 71.482 38.117 12.273 43.229 13.542 11.458 
407 86.616 60.785 10.012 73.958 30.729 21.354 
408 71.811 88.979 52.186 74.479 65.104 48.438 
409 43.213 100.00 72.083 58.854 84.896 68.229 
410 73.920 23.444 8.2853 43.229 8.3333 8.8542 
411 40.629 85.534 53.423 43.750 57.812 42.708 
412 38.955 52.128 22.885 21.354 19.792 13.021 
413 46.480 12.229 8.6707 15.625 3.1250 3.6458 
414 40.855 33.301 22.309 15.625 9.3750 8.3333 
