CTI3   

DESCRIPTOR "Argyll Calibration Target chart information 3"
ORIGINATOR "Argyll dispread"
CREATED "Tue Jan  3 15:09:04 2012"
KEYWORD "DEVICE_CLASS"
DEVICE_CLASS "DISPLAY"
KEYWORD "COLOR_REP"
COLOR_REP "RGB_XYZ"
KEYWORD "TARGET_INSTRUMENT"
TARGET_INSTRUMENT "Hughski ColorHug"
KEYWORD "INSTRUMENT_TYPE_SPECTRAL"
INSTRUMENT_TYPE_SPECTRAL "NO"
KEYWORD "LUMINANCE_XYZ_CDM2"
LUMINANCE_XYZ_CDM2 "48.065186 39.825439 42.800903"
KEYWORD "NORMALIZED_TO_Y_100"
NORMALIZED_TO_Y_100 "YES"

NUMBER_OF_FIELDS 7
BEGIN_DATA_FORMAT
SAMPLE_ID RGB_R RGB_G RGB_B XYZ_X XYZ_Y XYZ_Z 
END_DATA_FORMAT

NUMBER_OF_SETS 836
BEGIN_DATA
1 100.00 100.00 100.00 120.69 100.00 107.47 
2 100.00 100.00 100.00 120.69 100.00 107.47 
3 100.00 100.00 100.00 120.11 100.00 108.05 
4 100.00 100.00 100.00 120.11 100.00 108.62 
5 33.330 32.622 30.968 10.345 8.6207 8.6207 
6 100.00 0.0000 100.00 72.989 26.437 75.287 
7 100.00 100.00 0.0000 116.67 82.184 45.402 
8 0.0000 100.00 100.00 41.379 91.379 97.126 
9 0.0000 100.00 0.0000 40.230 71.839 32.759 
10 0.0000 0.0000 100.00 2.8736 18.391 63.793 
11 100.00 0.0000 0.0000 71.264 8.6207 12.069 
12 0.0000 0.0000 0.0000 0.57471 0.57471 0.57471 
13 0.0000 52.455 100.00 11.494 34.483 71.264 
14 100.00 0.0000 50.300 72.989 12.069 24.138 
15 100.00 54.739 100.00 85.632 44.253 83.333 
16 100.00 52.128 0.0000 82.759 24.713 18.966 
17 0.0000 0.0000 46.181 1.1494 3.4483 10.920 
18 0.0000 51.141 0.0000 9.1954 15.517 7.4713 
19 0.0000 100.00 51.348 40.805 76.437 45.977 
20 100.00 100.00 52.037 117.24 85.632 59.195 
21 49.216 0.0000 0.0000 14.368 2.2989 2.8736 
22 56.159 100.00 0.0000 59.195 74.713 36.207 
23 49.226 100.00 100.00 55.747 91.954 100.00 
24 44.487 0.0000 100.00 13.218 20.115 66.092 
25 100.00 44.498 52.029 79.310 23.563 30.460 
26 48.926 48.544 100.00 24.138 33.333 72.414 
27 51.368 100.00 47.250 57.471 76.437 46.552 
28 49.893 0.0000 49.033 15.517 5.7471 14.368 
29 53.109 51.372 0.0000 25.862 17.816 9.7701 
30 0.0000 58.587 53.943 12.644 24.713 24.138 
31 100.00 28.065 100.00 77.011 31.034 76.437 
32 0.0000 0.0000 72.874 1.7241 8.6207 28.736 
33 0.0000 26.758 100.00 4.5977 22.414 64.943 
34 0.0000 25.426 0.0000 2.8736 4.0230 2.2989 
35 72.508 0.0000 100.00 35.057 22.414 68.391 
36 100.00 27.395 0.0000 74.138 13.218 13.793 
37 74.470 100.00 100.00 79.310 95.977 102.30 
38 100.00 0.0000 25.728 70.690 9.7701 14.943 
39 73.862 0.0000 0.0000 34.483 4.5977 6.3218 
40 100.00 100.00 25.402 116.67 82.184 48.851 
41 0.0000 75.751 100.00 22.989 54.598 81.034 
42 0.0000 75.172 0.0000 21.264 35.632 17.241 
43 0.0000 100.00 25.864 40.230 72.414 36.207 
44 100.00 0.0000 74.801 72.989 17.241 42.529 
45 0.0000 100.00 75.421 41.379 80.460 64.943 
46 24.577 0.0000 0.0000 4.0230 1.1494 1.1494 
47 26.321 100.00 0.0000 44.253 72.414 33.333 
48 100.00 75.835 0.0000 97.126 45.402 28.736 
49 100.00 100.00 77.061 120.11 90.805 78.161 
50 71.263 100.00 0.0000 74.713 76.437 37.931 
51 0.0000 0.0000 15.614 0.57471 1.1494 1.7241 
52 0.0000 30.049 70.936 4.0230 13.218 29.310 
53 100.00 77.691 100.00 98.276 66.092 93.103 
54 24.486 100.00 100.00 45.402 91.954 97.126 
55 100.00 62.784 31.909 86.782 33.908 27.586 
56 29.552 0.0000 100.00 7.4713 18.966 64.943 
57 32.980 70.921 100.00 25.862 50.575 79.310 
58 0.0000 27.681 40.241 2.8736 6.8966 10.345 
59 67.901 71.021 100.00 48.851 52.874 83.333 
60 28.154 100.00 67.829 45.977 78.736 58.046 
61 71.637 100.00 70.001 75.862 82.759 64.943 
62 58.822 58.763 53.586 33.908 27.011 27.586 
63 33.466 30.480 0.0000 9.7701 6.3218 4.0230 
64 100.00 73.795 71.277 95.977 51.149 55.172 
65 68.394 29.692 0.0000 32.759 8.6207 7.4713 
66 70.399 0.0000 29.039 31.609 5.1724 9.1954 
67 28.078 0.0000 26.956 5.1724 2.2989 4.5977 
68 28.532 72.339 0.0000 24.138 33.908 16.092 
69 100.00 30.941 26.496 75.287 14.943 17.241 
70 34.597 0.0000 73.611 7.4713 9.7701 31.034 
71 71.573 0.0000 72.408 33.333 12.069 33.908 
72 0.0000 71.029 29.412 18.391 32.759 18.966 
73 68.386 75.008 0.0000 50.000 39.655 21.839 
74 68.088 27.309 100.00 33.333 25.862 70.690 
75 100.00 26.457 73.749 74.138 21.264 43.678 
76 74.344 100.00 27.392 77.586 77.586 42.529 
77 27.558 100.00 28.197 44.828 72.989 37.931 
78 31.196 27.465 100.00 9.7701 22.989 66.667 
79 0.0000 75.521 72.824 22.414 44.253 45.977 
80 0.0000 50.930 25.553 9.1954 16.667 10.345 
81 32.060 33.584 64.033 10.345 13.218 25.287 
82 81.666 55.380 0.0000 55.747 22.989 15.517 
83 68.257 32.751 58.286 33.333 14.368 25.287 
84 0.0000 55.248 81.585 12.069 29.310 45.977 
85 73.781 52.099 100.00 45.977 38.506 75.287 
86 100.00 50.537 82.952 82.759 35.057 58.046 
87 23.550 0.0000 50.439 4.0230 4.5977 13.218 
88 31.335 62.746 31.114 19.540 26.437 16.667 
89 100.00 18.310 49.418 72.414 13.793 24.713 
90 26.498 48.404 0.0000 11.494 14.368 7.4713 
91 47.910 100.00 85.744 54.598 86.782 78.736 
92 71.829 47.313 31.811 39.655 18.966 16.092 
93 31.304 64.132 69.316 21.264 33.333 39.080 
94 80.403 0.0000 54.321 42.529 9.7701 22.414 
95 18.455 50.036 100.00 12.644 33.333 71.264 
96 50.653 100.00 16.345 55.747 73.563 36.782 
97 80.121 100.00 52.261 86.207 81.034 54.023 
98 0.0000 22.540 19.289 2.2989 3.4483 3.4483 
99 100.00 75.273 46.886 96.552 48.276 39.080 
100 0.0000 78.618 56.625 24.138 44.828 34.483 
101 51.137 80.627 100.00 42.529 63.218 84.483 
102 48.446 0.0000 17.864 13.793 2.2989 4.5977 
103 100.00 50.023 21.211 81.609 24.138 20.690 
104 50.115 20.118 0.0000 16.092 4.5977 4.0230 
105 58.099 72.426 33.158 39.655 37.356 24.138 
106 19.364 100.00 50.197 42.529 77.011 45.977 
107 50.683 19.177 100.00 17.816 22.414 67.816 
108 53.370 0.0000 81.576 17.816 13.793 40.805 
109 47.768 76.245 0.0000 34.483 39.080 19.540 
110 0.0000 18.927 55.503 2.2989 6.8966 17.241 
111 0.0000 13.277 0.0000 1.1494 1.7241 1.1494 
112 72.862 72.473 75.625 54.598 45.977 52.874 
113 100.00 13.904 0.0000 72.414 9.7701 12.644 
114 86.349 0.0000 100.00 52.299 23.563 71.839 
115 100.00 41.941 100.00 80.460 36.782 79.310 
116 100.00 81.785 16.464 101.72 52.874 33.333 
117 0.0000 44.063 52.596 7.4713 15.517 18.966 
118 0.0000 0.0000 58.917 1.1494 5.7471 17.816 
119 59.250 24.551 29.789 23.563 6.8966 9.7701 
120 82.730 82.874 100.00 74.713 70.115 91.379 
121 80.039 0.0000 12.618 41.379 5.1724 8.0460 
122 60.957 47.729 77.817 31.609 26.437 43.678 
123 100.00 0.0000 38.618 71.264 10.920 18.966 
124 0.0000 40.090 100.00 7.4713 28.161 67.816 
125 0.0000 15.283 82.322 2.2989 13.218 39.655 
126 17.592 81.726 100.00 28.736 63.218 85.057 
127 100.00 14.130 100.00 73.563 28.161 76.437 
128 15.261 100.00 82.059 42.529 83.333 72.989 
129 47.770 79.418 60.389 37.931 47.701 40.230 
130 18.768 16.429 0.0000 4.0230 2.2989 1.7241 
131 55.634 100.00 65.763 60.345 80.460 59.195 
132 100.00 100.00 38.541 118.97 82.759 52.299 
133 17.421 0.0000 83.497 3.4483 12.069 40.805 
134 17.237 16.758 100.00 5.1724 20.115 64.368 
135 0.0000 15.067 30.039 1.7241 2.8736 5.1724 
136 0.0000 0.0000 86.505 2.2989 12.644 43.678 
137 75.736 72.799 50.020 57.471 41.954 33.908 
138 100.00 83.323 85.529 102.30 67.816 76.437 
139 100.00 100.00 64.894 117.24 87.931 68.391 
140 81.980 84.914 0.0000 72.414 53.448 29.885 
141 0.0000 63.757 15.490 14.368 25.287 13.218 
142 49.514 66.135 100.00 31.609 46.552 78.736 
143 100.00 0.0000 61.862 71.839 14.368 32.184 
144 24.308 45.410 49.831 10.920 16.092 18.966 
145 15.963 0.0000 17.047 1.7241 1.1494 2.2989 
146 87.497 100.00 100.00 98.276 95.977 104.60 
147 52.099 25.003 75.752 19.540 14.943 35.632 
148 14.909 81.162 0.0000 26.437 43.103 19.540 
149 0.0000 34.792 14.626 4.0230 7.4713 4.5977 
150 48.390 45.075 22.552 21.264 14.368 10.345 
151 83.545 65.965 100.00 64.943 50.575 82.759 
152 16.226 62.345 0.0000 15.517 24.138 11.494 
153 63.222 0.0000 14.914 24.138 3.4483 5.7471 
154 80.449 13.446 0.0000 42.529 6.3218 8.0460 
155 83.917 41.562 0.0000 52.299 15.517 12.644 
156 100.00 60.448 46.300 86.207 33.333 32.759 
157 15.584 0.0000 34.795 2.2989 2.2989 6.3218 
158 17.144 65.121 100.00 18.966 44.253 76.437 
159 83.602 55.334 62.667 59.195 29.310 36.782 
160 0.0000 82.190 14.220 25.862 44.828 21.264 
161 25.132 74.856 50.616 24.713 39.655 29.885 
162 0.0000 13.769 100.00 2.8736 19.540 63.793 
163 87.181 0.0000 0.0000 51.724 6.8966 8.6207 
164 0.0000 100.00 39.190 40.805 74.713 39.655 
165 78.047 65.914 19.865 56.322 32.184 20.115 
166 100.00 63.961 15.865 88.506 33.908 24.713 
167 100.00 45.955 36.032 79.310 22.989 23.563 
168 15.926 100.00 16.890 41.379 73.563 34.483 
169 41.459 100.00 0.0000 50.000 74.138 34.483 
170 48.707 37.288 48.139 18.391 13.218 17.816 
171 83.381 100.00 13.285 88.506 78.736 41.954 
172 78.129 25.303 75.621 42.529 17.816 40.230 
173 12.396 0.0000 0.0000 1.1494 0.57471 0.57471 
174 37.607 48.336 83.346 17.241 26.437 48.276 
175 35.588 15.356 0.0000 8.0460 2.8736 2.2989 
176 61.245 100.00 100.00 66.092 91.954 100.57 
177 100.00 67.290 87.195 91.954 48.851 70.115 
178 0.0000 0.0000 30.615 0.57471 1.7241 4.5977 
179 35.187 81.789 83.323 33.908 56.897 61.494 
180 39.525 80.194 22.879 33.908 44.253 22.989 
181 50.634 34.593 0.0000 19.540 8.6207 5.7471 
182 14.175 100.00 63.146 41.954 78.736 53.448 
183 83.493 17.728 34.574 47.126 9.7701 13.793 
184 23.463 22.014 79.943 6.3218 13.793 37.931 
185 18.066 31.847 0.0000 5.7471 6.3218 3.4483 
186 87.201 100.00 81.361 95.977 90.230 80.460 
187 0.0000 100.00 87.950 40.805 85.632 79.310 
188 34.476 17.888 46.220 8.0460 6.3218 12.644 
189 18.277 0.0000 67.390 2.8736 8.0460 24.713 
190 100.00 87.972 0.0000 105.75 60.920 36.207 
191 82.925 34.850 100.00 51.724 30.460 74.713 
192 0.0000 88.016 100.00 31.609 70.115 87.931 
193 36.104 85.655 100.00 37.931 67.816 87.356 
194 60.981 0.0000 0.0000 22.989 2.8736 4.5977 
195 51.466 61.826 78.106 30.460 34.483 47.701 
196 78.427 31.983 22.175 43.678 11.494 11.494 
197 66.017 44.321 0.0000 33.908 14.368 9.7701 
198 83.941 0.0000 84.177 48.276 17.816 48.276 
199 20.158 46.612 23.269 10.345 13.793 9.1954 
200 0.0000 100.00 62.618 41.379 78.736 52.874 
201 33.832 0.0000 13.933 6.8966 1.7241 2.2989 
202 100.00 17.286 16.322 72.414 10.920 13.793 
203 0.0000 42.204 83.926 7.4713 22.414 45.977 
204 0.0000 87.774 0.0000 29.310 52.299 24.138 
205 64.988 0.0000 59.017 26.437 8.6207 22.414 
206 14.677 0.0000 100.00 3.4483 18.391 64.368 
207 88.934 82.673 35.021 81.609 52.874 36.207 
208 0.0000 63.778 100.00 16.092 43.103 75.862 
209 83.429 17.674 100.00 48.851 25.287 72.414 
210 30.899 100.00 85.668 47.126 84.483 77.586 
211 83.680 0.0000 41.016 47.701 8.0460 16.092 
212 100.00 63.515 0.0000 88.506 32.759 22.989 
213 85.074 69.987 0.0000 67.816 36.782 21.839 
214 20.801 45.524 69.018 10.345 20.115 31.034 
215 21.382 82.482 73.017 29.885 54.023 50.000 
216 100.00 15.128 64.249 72.989 16.092 33.333 
217 36.522 0.0000 58.427 8.0460 6.3218 18.391 
218 22.466 81.296 33.007 28.161 45.977 25.862 
219 62.531 87.152 0.0000 53.448 54.598 27.586 
220 84.120 85.397 67.886 77.011 62.069 55.172 
221 18.870 27.336 45.389 5.1724 7.4713 13.218 
222 66.439 100.00 14.444 68.391 75.862 38.506 
223 41.636 22.147 19.003 12.069 4.5977 5.1724 
224 61.271 100.00 81.940 64.368 86.207 75.862 
225 86.013 100.00 0.0000 93.678 77.586 41.954 
226 37.570 0.0000 0.0000 8.0460 1.7241 1.7241 
227 100.00 16.132 84.102 73.563 21.839 54.023 
228 0.0000 100.00 13.619 40.805 71.264 33.333 
229 38.905 100.00 56.471 50.000 77.586 50.575 
230 100.00 15.382 34.563 73.563 11.494 17.816 
231 36.656 14.908 100.00 10.345 20.690 64.943 
232 0.0000 62.593 66.608 14.943 31.034 34.483 
233 66.347 12.528 100.00 29.885 22.414 67.816 
234 100.00 43.375 69.233 79.310 27.011 41.954 
235 100.00 56.360 61.236 84.483 32.759 39.655 
236 0.0000 86.194 44.955 29.310 52.874 32.759 
237 64.527 87.262 100.00 56.897 73.563 91.954 
238 34.411 0.0000 42.471 6.8966 4.0230 10.345 
239 80.230 59.707 85.120 55.747 38.506 59.770 
240 20.625 19.056 14.791 4.0230 3.4483 2.8736 
241 15.341 34.221 100.00 6.8966 24.713 67.816 
242 36.777 0.0000 87.905 9.1954 13.793 47.701 
243 34.598 56.247 100.00 19.540 37.356 74.138 
244 20.860 67.629 17.418 19.540 29.310 14.943 
245 44.958 60.843 18.054 24.713 24.138 14.368 
246 37.421 60.193 0.0000 20.690 22.414 11.494 
247 84.011 33.849 42.612 51.724 14.943 19.540 
248 17.241 60.339 37.743 14.943 24.138 17.816 
249 50.650 17.261 53.278 16.667 8.0460 17.241 
250 45.505 48.926 65.152 21.264 22.414 30.460 
251 44.567 84.081 39.649 39.080 51.149 30.460 
252 100.00 86.339 72.054 105.75 67.816 63.218 
253 68.140 61.135 0.0000 42.529 26.437 14.943 
254 17.930 66.986 81.403 19.540 39.080 51.149 
255 39.242 60.215 48.926 21.839 26.437 23.563 
256 20.099 18.770 62.967 4.0230 9.1954 22.414 
257 34.553 100.00 14.582 46.552 73.563 35.057 
258 87.345 0.0000 66.694 51.724 13.218 32.184 
259 0.0000 43.714 39.842 6.8966 13.218 13.218 
260 100.00 37.705 13.955 77.011 16.667 16.667 
261 31.265 86.993 0.0000 35.057 51.149 24.713 
262 51.402 82.661 81.338 43.103 57.471 61.494 
263 100.00 100.00 12.984 118.97 80.460 45.402 
264 0.0000 37.859 0.0000 5.1724 8.6207 4.0230 
265 62.092 58.215 100.00 37.356 41.379 76.437 
266 86.186 100.00 64.100 95.402 85.632 62.644 
267 100.00 35.251 85.898 77.586 28.161 57.471 
268 63.182 89.992 41.974 56.897 61.494 37.931 
269 13.504 100.00 0.0000 41.379 72.414 32.759 
270 100.00 0.0000 13.228 71.264 8.6207 12.644 
271 63.881 40.826 100.00 32.184 31.609 71.839 
272 69.387 84.838 20.792 58.046 52.874 29.310 
273 0.0000 70.279 45.136 17.816 33.908 24.713 
274 79.094 64.754 40.908 55.747 33.333 26.437 
275 62.385 54.099 17.396 33.333 20.690 13.793 
276 64.408 14.621 0.0000 25.862 4.5977 5.1724 
277 70.028 15.606 44.651 32.184 8.0460 15.517 
278 0.0000 63.544 0.0000 14.943 24.138 12.069 
279 83.475 47.274 20.502 54.598 18.966 15.517 
280 55.866 0.0000 32.671 19.540 4.0230 8.6207 
281 58.007 0.0000 100.00 22.414 20.690 66.667 
282 100.00 0.0000 87.698 72.989 21.839 56.897 
283 0.0000 13.792 67.215 2.2989 8.0460 24.713 
284 84.123 17.001 58.549 48.851 12.644 25.862 
285 59.579 32.873 15.966 25.287 9.1954 8.0460 
286 10.410 32.998 28.659 5.1724 7.4713 7.4713 
287 17.231 40.031 85.650 8.6207 21.839 47.701 
288 37.568 41.561 10.108 13.793 11.494 6.8966 
289 0.0000 69.015 85.092 18.391 41.954 56.322 
290 14.442 100.00 36.187 41.379 74.138 39.655 
291 100.00 40.549 0.0000 76.437 17.816 16.092 
292 82.143 45.435 78.429 52.299 27.011 47.701 
293 52.674 0.0000 67.300 17.241 9.1954 27.586 
294 0.0000 87.868 66.793 31.034 58.046 47.701 
295 86.530 100.00 40.524 94.828 79.885 50.000 
296 71.777 85.586 67.232 62.644 59.770 52.299 
297 43.216 100.00 31.671 51.724 74.138 39.655 
298 39.245 32.908 85.845 13.793 19.540 47.701 
299 0.0000 45.662 67.543 8.0460 18.966 29.885 
300 12.161 100.00 100.00 43.103 91.379 95.402 
301 67.049 0.0000 85.516 28.736 15.517 47.126 
302 100.00 89.041 100.00 109.20 81.034 100.00 
303 20.246 60.698 56.526 16.092 27.586 27.011 
304 52.177 55.457 40.416 27.011 22.414 18.966 
305 72.617 87.018 83.932 64.368 67.816 69.540 
306 40.512 16.723 66.475 10.920 10.345 25.862 
307 68.507 49.232 50.605 37.356 21.839 24.713 
308 65.622 100.00 54.525 67.241 79.885 52.874 
309 54.115 37.240 66.394 22.414 17.241 29.885 
310 100.00 76.138 31.267 95.977 47.126 33.908 
311 54.728 65.623 0.0000 32.759 28.161 14.943 
312 63.126 12.526 64.370 25.862 10.345 26.437 
313 72.827 18.080 23.704 35.057 6.8966 9.1954 
314 23.268 15.278 34.947 4.5977 4.0230 7.4713 
315 87.648 68.954 59.645 71.839 40.805 40.230 
316 0.0000 85.595 85.198 29.885 61.494 64.943 
317 35.798 84.371 69.210 35.057 55.747 48.276 
318 36.062 47.494 35.919 15.517 16.092 13.218 
319 86.083 36.277 59.152 55.172 18.966 29.310 
320 58.210 100.00 30.361 62.069 77.011 40.230 
321 46.745 14.614 32.317 13.793 4.5977 8.0460 
322 81.573 73.869 86.954 66.092 54.023 67.816 
323 85.991 49.387 48.206 58.621 23.563 26.437 
324 28.062 87.906 19.654 33.908 53.448 27.011 
325 68.992 17.993 85.124 32.184 17.816 48.276 
326 100.00 66.147 100.00 91.379 54.023 87.356 
327 33.358 64.806 84.517 22.989 38.506 54.598 
328 41.351 17.736 80.522 12.069 13.793 39.655 
329 100.00 100.00 88.719 118.39 95.402 93.103 
330 66.336 0.0000 44.320 27.586 6.3218 13.793 
331 64.850 67.090 12.293 43.103 31.034 17.816 
332 15.262 31.268 63.277 5.1724 12.069 23.563 
333 15.008 43.663 37.300 8.0460 13.793 12.069 
334 0.0000 57.895 38.078 12.069 22.989 16.092 
335 66.599 58.458 67.871 40.230 31.034 38.506 
336 59.191 18.651 15.215 22.414 5.1724 6.3218 
337 66.781 31.140 84.629 31.609 20.115 48.851 
338 88.033 85.158 52.140 83.908 58.621 45.402 
339 36.882 100.00 100.00 50.000 90.230 98.276 
340 26.102 33.094 17.006 7.4713 7.4713 5.1724 
341 56.309 36.861 35.862 24.138 12.069 13.218 
342 45.839 65.587 67.033 28.161 35.057 37.931 
343 83.709 81.172 16.406 73.563 48.851 28.736 
344 0.0000 48.132 13.005 8.0460 14.368 7.4713 
345 87.176 50.021 100.00 62.644 39.080 77.586 
346 51.219 84.244 13.730 43.103 49.425 24.713 
347 60.606 71.415 48.406 41.379 38.506 29.885 
348 0.0000 11.359 12.718 1.1494 1.7241 2.2989 
349 86.429 49.705 33.145 59.195 22.414 20.115 
350 34.056 40.958 100.00 13.793 29.310 68.966 
351 100.00 30.557 59.628 74.713 18.966 32.759 
352 88.497 26.902 13.449 54.598 10.920 12.069 
353 14.167 51.980 88.218 12.069 29.885 54.598 
354 13.784 12.983 49.370 2.2989 5.1724 13.218 
355 15.018 88.441 48.062 32.184 56.322 36.207 
356 87.790 25.769 89.215 55.747 23.563 58.046 
357 0.0000 33.206 55.865 4.5977 11.494 18.966 
358 74.324 76.029 35.536 58.046 42.529 29.310 
359 65.863 57.223 42.324 39.080 24.713 22.414 
360 30.893 54.646 13.136 16.092 18.966 9.7701 
361 0.0000 34.360 28.321 4.0230 7.4713 7.4713 
362 15.443 77.087 85.116 25.287 50.575 59.770 
363 63.381 68.947 68.521 43.103 40.230 42.529 
364 69.733 27.566 42.917 33.333 10.345 16.092 
365 32.754 100.00 42.760 47.126 76.437 42.529 
366 47.096 29.481 34.829 16.092 8.0460 10.345 
367 8.5451 71.948 62.695 20.690 38.506 35.632 
368 0.0000 86.048 29.300 28.736 50.575 27.011 
369 53.697 51.572 85.367 28.161 29.885 52.874 
370 17.608 56.690 12.515 13.218 19.540 10.920 
371 90.638 14.414 49.227 58.621 11.494 22.414 
372 63.248 63.640 89.550 40.805 40.805 63.218 
373 100.00 85.976 58.455 105.75 63.793 52.299 
374 9.8311 28.027 7.5567 4.0230 4.5977 2.8736 
375 89.831 64.313 69.506 71.839 39.655 45.977 
376 31.754 12.995 25.543 6.3218 2.8736 5.1724 
377 75.914 45.966 64.957 44.828 22.989 34.483 
378 7.5735 50.695 58.941 9.7701 20.690 25.287 
379 100.00 69.835 58.912 92.529 43.678 43.678 
380 32.211 34.376 48.339 10.345 10.920 16.092 
381 13.901 12.159 73.555 2.8736 9.7701 30.460 
382 87.071 9.0280 77.653 51.724 16.092 43.103 
383 23.272 85.409 84.290 32.184 60.920 64.943 
384 93.289 39.480 26.145 66.092 17.241 17.241 
385 65.769 59.630 30.967 40.230 25.862 18.966 
386 100.00 32.265 41.803 75.862 16.667 22.989 
387 86.568 85.281 86.961 82.184 67.241 75.287 
388 52.577 86.830 30.016 46.552 54.023 29.885 
389 47.921 40.199 76.902 20.115 20.690 39.080 
390 22.360 86.619 61.580 32.759 56.897 43.103 
391 52.232 33.601 88.787 21.264 22.414 52.299 
392 0.0000 28.523 86.267 4.0230 17.241 45.402 
393 43.497 67.879 39.551 27.586 32.184 22.414 
394 39.877 45.261 0.0000 16.092 12.644 6.8966 
395 86.940 12.430 24.699 51.149 8.6207 11.494 
396 28.363 55.339 90.398 16.092 33.333 59.195 
397 39.018 70.534 57.879 27.011 37.356 33.908 
398 12.833 28.519 78.828 4.5977 15.517 37.356 
399 68.350 31.815 69.975 32.759 17.241 34.483 
400 56.520 26.226 41.626 21.839 8.6207 13.793 
401 12.938 46.218 0.0000 8.6207 12.644 6.3218 
402 8.6938 60.179 26.117 13.793 22.414 13.218 
403 51.995 89.429 96.608 49.425 72.414 86.782 
404 46.905 47.746 48.909 21.264 18.391 20.115 
405 14.352 81.814 19.479 27.011 44.828 22.414 
406 71.482 38.117 12.273 37.356 12.644 9.7701 
407 86.616 60.785 10.012 64.368 28.736 18.966 
408 71.811 88.979 52.186 64.943 62.069 43.678 
409 43.213 100.00 72.083 52.299 82.759 62.644 
410 73.920 23.444 8.2853 36.782 7.4713 8.0460 
411 40.629 85.534 53.423 37.356 54.598 37.931 
412 38.955 52.128 22.885 17.816 18.391 11.494 
413 46.480 12.229 8.6707 13.218 2.8736 3.4483 
414 40.855 33.301 22.309 13.218 8.6207 7.4713 
