CTI3   

DESCRIPTOR "Argyll Calibration Target chart information 3"
ORIGINATOR "Argyll dispread"
CREATED "Thu Mar  8 07:21:23 2012"
KEYWORD "DEVICE_CLASS"
DEVICE_CLASS "DISPLAY"
KEYWORD "COLOR_REP"
COLOR_REP "RGB_XYZ"
KEYWORD "TARGET_INSTRUMENT"
TARGET_INSTRUMENT "Hughski ColorHug"
KEYWORD "INSTRUMENT_TYPE_SPECTRAL"
INSTRUMENT_TYPE_SPECTRAL "NO"
KEYWORD "LUMINANCE_XYZ_CDM2"
LUMINANCE_XYZ_CDM2 "81.686356 92.292892 112.803101"
KEYWORD "NORMALIZED_TO_Y_100"
NORMALIZED_TO_Y_100 "YES"

NUMBER_OF_FIELDS 7
BEGIN_DATA_FORMAT
SAMPLE_ID RGB_R RGB_G RGB_B XYZ_X XYZ_Y XYZ_Z 
END_DATA_FORMAT

NUMBER_OF_SETS 836
BEGIN_DATA
1 100.00 100.00 100.00 88.508 100.00 122.22 
2 100.00 100.00 100.00 88.571 98.883 131.28 
3 100.00 100.00 100.00 89.682 98.513 133.61 
4 100.00 100.00 100.00 87.843 97.086 119.22 
5 0.0000 100.00 100.00 49.997 76.342 139.45 
6 0.0000 0.0000 0.0000 0.70955 0.87567 0.90958 
7 0.0000 0.0000 100.00 22.982 6.5957 123.29 
8 100.00 0.0000 0.0000 40.687 20.642 -1.9995 
9 100.00 100.00 0.0000 67.571 93.493 14.037 
10 0.0000 100.00 0.0000 28.162 74.678 15.135 
11 100.00 0.0000 100.00 62.527 27.490 114.15 
12 0.0000 49.772 100.00 26.132 16.889 121.00 
13 0.0000 52.030 0.0000 4.8542 11.941 2.7662 
14 0.0000 0.0000 52.760 4.1008 1.7716 19.759 
15 100.00 0.0000 45.125 43.009 21.334 9.4059 
16 100.00 49.621 100.00 65.001 36.157 121.98 
17 100.00 53.697 0.0000 45.436 33.051 -0.015987 
18 44.554 0.0000 0.0000 5.0849 3.0391 0.77670 
19 100.00 100.00 46.389 70.349 94.975 22.671 
20 0.0000 100.00 55.657 32.246 73.453 40.441 
21 49.477 100.00 100.00 56.528 82.987 134.44 
22 46.306 100.00 0.0000 33.366 76.511 15.486 
23 40.510 0.0000 100.00 25.556 9.1413 116.41 
24 0.0000 52.807 50.635 8.3731 13.660 19.741 
25 100.00 52.549 51.288 45.582 32.012 19.851 
26 49.732 47.591 0.0000 10.009 12.301 2.3523 
27 48.223 0.0000 52.651 9.8104 4.9332 19.188 
28 50.614 55.771 100.00 33.968 25.075 119.05 
29 49.932 100.00 55.492 38.553 77.796 39.276 
30 0.0000 25.869 0.0000 1.2084 1.7530 1.3383 
31 0.0000 0.0000 26.745 1.1638 1.3280 2.4137 
32 100.00 0.0000 72.532 49.697 23.225 48.981 
33 100.00 27.894 0.0000 40.809 21.658 -1.5368 
34 0.0000 100.00 28.029 28.376 74.613 17.012 
35 100.00 74.559 100.00 74.831 57.658 128.04 
36 0.0000 74.784 100.00 35.681 39.202 129.93 
37 100.00 100.00 74.254 76.631 90.803 63.702 
38 73.667 100.00 0.0000 46.400 82.682 15.300 
39 71.872 0.0000 100.00 39.983 15.547 121.38 
40 75.331 100.00 100.00 69.897 85.778 137.74 
41 72.712 0.0000 0.0000 18.265 9.8751 -0.11064 
42 0.0000 25.804 100.00 22.640 7.8173 117.52 
43 28.281 0.0000 0.0000 1.9066 1.5965 1.2168 
44 51.446 48.218 54.003 14.493 14.096 22.798 
45 100.00 100.00 29.937 68.433 94.085 14.521 
46 100.00 25.040 100.00 62.390 28.436 111.74 
47 0.0000 76.268 0.0000 14.187 36.896 7.2480 
48 24.793 100.00 100.00 50.871 81.346 133.57 
49 100.00 0.0000 27.673 41.112 21.042 -0.18436 
50 100.00 76.963 0.0000 54.511 57.823 5.1937 
51 0.0000 0.0000 76.526 11.449 3.9998 58.395 
52 20.393 0.0000 100.00 22.540 7.8028 116.47 
53 16.434 100.00 0.0000 27.779 72.369 14.956 
54 0.0000 100.00 83.902 42.222 78.447 92.181 
55 36.269 29.322 100.00 25.664 9.2058 121.78 
56 0.0000 31.510 72.981 10.829 5.1971 52.179 
57 73.108 72.977 0.0000 30.407 40.855 5.7425 
58 32.622 73.057 0.0000 14.192 33.483 6.5016 
59 71.440 0.0000 32.833 18.120 9.5647 3.6488 
60 67.360 30.655 100.00 37.938 15.492 120.94 
61 100.00 32.435 69.725 49.332 25.313 41.628 
62 71.564 100.00 33.694 45.525 80.431 20.132 
63 0.0000 29.065 27.751 1.7267 2.4722 2.9404 
64 30.289 100.00 27.578 29.460 74.528 15.372 
65 100.00 73.586 74.348 63.112 56.113 59.870 
66 0.0000 71.529 28.374 12.157 30.130 8.2444 
67 31.776 0.0000 27.675 2.6829 2.0312 2.6334 
68 0.0000 72.764 72.179 21.727 34.854 57.271 
69 100.00 71.739 30.730 52.537 50.228 6.6526 
70 68.944 29.578 0.0000 16.186 9.7832 0.57396 
71 27.661 73.523 100.00 36.058 40.464 128.27 
72 73.052 0.0000 71.273 27.241 12.581 46.185 
73 100.00 29.114 32.478 41.826 22.321 1.5786 
74 26.539 0.0000 74.456 11.566 4.2577 54.946 
75 74.574 100.00 69.826 54.129 84.885 56.826 
76 28.869 100.00 71.428 37.313 74.416 62.552 
77 29.597 24.401 0.0000 2.2359 2.2077 1.3070 
78 70.927 76.065 100.00 53.144 51.569 126.99 
79 27.482 52.084 27.416 6.2944 12.649 4.6389 
80 26.713 44.947 0.0000 4.3104 8.1754 2.3909 
81 71.088 69.567 55.036 31.136 36.697 27.782 
82 100.00 80.666 49.689 58.705 61.315 23.113 
83 0.0000 49.644 76.396 14.941 13.827 59.262 
84 74.997 48.292 100.00 45.015 25.501 121.97 
85 30.106 69.463 56.017 16.181 28.735 29.044 
86 43.286 26.755 23.045 5.2714 3.8551 1.8797 
87 74.178 48.460 28.303 22.989 19.238 3.0996 
88 0.0000 45.287 19.075 3.5735 7.8916 2.7789 
89 25.019 55.855 100.00 29.064 21.355 125.41 
90 25.534 24.047 47.724 4.1982 2.6545 14.595 
91 50.479 0.0000 83.513 20.996 7.7033 76.470 
92 44.803 100.00 71.728 41.591 79.205 63.920 
93 17.575 0.0000 48.903 3.7803 2.1272 15.571 
94 54.486 68.666 25.247 18.629 30.938 6.6271 
95 17.389 100.00 52.794 31.480 71.410 37.505 
96 0.0000 84.157 50.767 21.285 49.244 25.144 
97 72.992 28.210 48.246 21.470 11.645 13.938 
98 52.611 83.840 100.00 46.393 56.998 123.45 
99 75.352 45.506 0.0000 22.214 17.451 1.1054 
100 0.0000 14.740 49.422 3.6047 1.8764 16.042 
101 100.00 25.426 51.635 44.037 22.273 16.166 
102 100.00 50.477 80.970 57.187 34.584 69.234 
103 100.00 53.335 25.883 44.610 32.384 1.9806 
104 48.377 19.285 0.0000 6.3619 3.9325 0.95979 
105 49.554 83.843 0.0000 24.024 50.106 8.3106 
106 48.236 0.0000 17.016 6.4289 3.9583 0.92453 
107 0.0000 15.223 16.409 0.98444 1.1410 1.4885 
108 80.824 0.0000 48.615 25.982 13.152 14.144 
109 31.775 44.060 69.079 12.697 10.200 45.724 
110 51.019 100.00 27.603 35.142 77.815 16.640 
111 58.770 29.896 73.262 20.386 10.059 50.814 
112 0.0000 0.0000 13.289 0.94607 1.1676 1.2128 
113 81.710 100.00 49.485 55.275 87.463 26.973 
114 0.0000 13.147 0.0000 0.94607 1.1676 1.2128 
115 100.00 0.0000 57.896 42.573 21.176 25.404 
116 50.001 69.176 72.132 26.394 33.373 55.895 
117 0.0000 87.688 100.00 42.281 57.901 132.07 
118 71.869 54.831 69.907 31.218 24.959 47.605 
119 82.143 16.149 0.0000 25.312 13.327 -0.71241 
120 100.00 87.564 100.00 80.504 80.679 114.89 
121 100.00 14.495 0.0000 40.215 20.703 -1.6192 
122 61.965 100.00 100.00 61.509 81.922 135.44 
123 83.813 100.00 17.552 52.539 80.963 17.966 
124 50.222 18.338 100.00 29.426 10.282 122.46 
125 20.108 23.686 100.00 23.109 7.7084 119.34 
126 82.329 0.0000 17.488 25.312 13.327 -0.71241 
127 82.988 17.497 100.00 47.744 19.392 121.42 
128 85.854 0.0000 100.00 50.037 20.931 117.38 
129 100.00 18.671 83.334 54.463 24.691 73.339 
130 0.0000 100.00 42.183 29.734 72.476 25.995 
131 84.389 84.779 0.0000 44.191 60.997 7.0345 
132 86.979 100.00 0.0000 55.744 85.034 14.637 
133 100.00 40.961 0.0000 42.058 25.429 -0.56293 
134 13.519 35.951 100.00 24.428 10.041 123.30 
135 0.0000 18.691 83.992 14.843 5.1215 76.569 
136 75.591 26.816 22.157 20.149 11.404 0.60828 
137 0.0000 100.00 13.753 27.928 73.211 15.783 
138 84.392 100.00 83.127 67.829 89.578 86.394 
139 100.00 83.416 17.234 56.963 64.296 7.2302 
140 83.965 33.908 100.00 49.584 22.186 119.51 
141 100.00 100.00 87.538 82.388 99.077 88.170 
142 86.631 0.0000 0.0000 28.675 14.941 -1.0362 
143 73.839 78.145 31.992 33.796 48.753 9.9340 
144 0.0000 39.871 0.0000 2.6070 5.4815 2.0195 
145 45.403 65.868 0.0000 14.138 26.391 4.9108 
146 24.496 78.282 37.062 16.547 39.074 13.702 
147 74.349 80.128 74.975 44.457 53.732 59.570 
148 100.00 100.00 59.816 72.640 95.099 37.134 
149 21.512 19.178 24.465 1.4987 1.4571 2.2373 
150 21.152 65.244 78.145 20.842 27.595 65.277 
151 0.0000 39.445 51.456 5.6526 6.1500 18.930 
152 0.0000 37.119 86.142 17.214 8.3315 84.054 
153 21.895 22.364 77.185 12.248 4.5021 60.309 
154 22.527 45.447 46.235 6.1321 8.8754 14.487 
155 100.00 61.208 100.00 69.418 44.669 120.33 
156 100.00 36.525 84.478 56.210 27.939 76.368 
157 17.251 0.0000 16.491 1.1313 1.3393 1.3291 
158 50.352 22.875 47.038 9.4731 5.2058 13.693 
159 51.534 35.754 100.00 30.606 13.206 120.96 
160 100.00 57.667 68.630 54.328 38.401 43.959 
161 0.0000 0.0000 40.019 2.2962 1.6216 8.4274 
162 20.286 81.615 0.0000 16.871 42.791 9.2766 
163 13.966 66.654 0.0000 9.8213 24.977 5.4083 
164 100.00 17.864 17.617 40.908 21.028 -1.4741 
165 100.00 85.795 34.302 57.654 69.501 11.624 
166 0.0000 13.186 100.00 23.238 7.0191 122.69 
167 100.00 100.00 15.296 67.143 92.578 14.969 
168 87.292 67.174 0.0000 38.412 39.343 3.6429 
169 63.018 15.087 0.0000 12.633 7.1271 0.47035 
170 60.527 100.00 0.0000 38.581 76.268 14.859 
171 100.00 0.0000 86.208 55.701 24.984 79.593 
172 35.131 100.00 85.790 44.844 79.503 95.125 
173 60.211 57.971 0.0000 16.983 21.603 3.5542 
174 54.472 76.856 50.879 25.295 41.968 24.601 
175 35.811 86.175 100.00 43.562 58.424 128.38 
176 0.0000 84.051 17.442 18.069 45.975 10.606 
177 100.00 14.213 35.817 41.478 21.111 2.9283 
178 43.710 100.00 40.760 33.655 74.654 23.816 
179 0.0000 14.517 67.391 8.3137 3.2377 41.022 
180 44.831 0.0000 34.146 5.9616 3.6656 4.7715 
181 53.257 48.450 32.182 12.184 13.712 5.4991 
182 80.634 21.747 68.401 31.966 14.892 42.053 
183 33.047 87.184 0.0000 21.251 50.284 12.041 
184 76.764 52.568 51.162 28.548 23.361 18.607 
185 100.00 15.270 67.250 48.218 22.994 38.957 
186 0.0000 85.277 65.703 25.677 50.897 47.331 
187 33.745 0.0000 87.227 18.288 6.1690 86.068 
188 34.414 0.0000 14.509 2.8801 2.1723 1.1319 
189 0.0000 68.669 57.560 15.312 28.577 31.031 
190 0.0000 66.827 12.553 9.9393 24.656 6.1022 
191 67.404 100.00 18.898 41.949 80.153 13.219 
192 36.493 12.179 0.0000 3.2663 2.4214 1.1424 
193 16.869 100.00 83.869 41.420 76.011 87.307 
194 0.0000 30.989 14.139 1.5477 2.7520 1.4730 
195 85.031 31.706 0.0000 27.149 15.606 0.13071 
196 0.0000 87.999 83.008 33.030 57.842 78.339 
197 53.960 50.013 80.356 24.533 18.116 70.458 
198 83.973 0.0000 82.844 39.572 16.995 74.699 
199 0.0000 64.669 82.369 22.048 26.386 75.673 
200 0.0000 56.916 36.220 7.3242 15.922 8.6874 
201 15.312 0.0000 65.704 7.8912 3.0635 38.531 
202 57.952 0.0000 0.0000 10.246 5.8475 0.57596 
203 67.104 0.0000 57.104 19.269 9.3310 24.649 
204 86.646 0.0000 34.750 29.379 15.076 3.2957 
205 38.496 15.162 64.774 10.160 4.4866 36.203 
206 100.00 0.0000 13.908 39.663 20.590 -1.1149 
207 0.0000 62.707 100.00 29.818 27.098 120.50 
208 14.974 0.0000 85.629 15.515 5.2674 79.816 
209 100.00 84.721 85.106 71.414 73.320 74.588 
210 17.977 11.338 0.0000 1.1313 1.3393 1.3291 
211 36.369 80.565 73.488 28.575 46.441 62.357 
212 36.429 100.00 14.052 30.441 72.980 16.514 
213 17.842 34.779 0.0000 2.0595 3.7761 1.8128 
214 68.014 100.00 85.106 56.787 80.847 95.344 
215 67.422 0.0000 85.546 30.004 12.052 81.281 
216 82.617 66.865 86.564 50.290 42.152 87.346 
217 17.323 100.00 16.561 28.270 74.436 15.242 
218 36.759 62.157 100.00 32.841 26.619 126.93 
219 100.00 63.264 42.070 49.895 41.619 11.078 
220 17.144 85.171 100.00 40.903 56.638 127.78 
221 82.628 88.517 100.00 66.379 73.804 122.35 
222 42.508 59.162 43.030 12.546 20.012 13.438 
223 15.879 0.0000 32.514 1.6305 1.4603 4.3712 
224 13.914 0.0000 0.0000 1.0131 1.1934 1.1775 
225 0.0000 14.875 31.793 1.5252 1.4611 4.1308 
226 40.699 46.047 100.00 29.044 16.119 122.73 
227 33.094 13.607 100.00 24.824 7.7480 122.88 
228 86.363 100.00 34.880 55.877 85.214 18.300 
229 100.00 86.140 66.213 66.190 73.156 43.633 
230 14.817 100.00 34.636 28.833 73.424 20.009 
231 100.00 34.683 17.474 41.638 23.147 -1.0179 
232 14.768 100.00 68.024 35.725 76.841 55.647 
233 31.864 0.0000 58.806 7.1811 3.3940 27.132 
234 0.0000 86.128 34.446 19.960 49.840 15.138 
235 83.837 63.507 100.00 55.239 40.650 119.35 
236 100.00 65.852 15.459 48.362 43.505 2.5644 
237 100.00 88.682 0.0000 61.007 74.413 9.1220 
238 37.474 100.00 100.00 51.845 81.793 129.75 
239 37.249 37.275 40.035 5.9921 6.0693 9.0826 
240 38.416 79.284 18.329 18.452 42.005 8.1634 
241 100.00 36.249 45.449 43.944 24.400 10.067 
242 0.0000 42.567 34.875 3.8356 6.7870 6.6023 
243 13.662 68.478 100.00 32.807 32.732 126.94 
244 65.114 0.0000 15.658 13.660 7.5819 0.43908 
245 16.651 51.372 62.148 10.865 13.395 34.640 
246 30.301 32.686 17.311 2.8917 3.6712 1.6208 
247 31.443 100.00 0.0000 29.591 74.821 15.434 
248 100.00 65.622 86.329 64.534 47.194 85.815 
249 55.905 83.078 65.229 32.878 50.427 46.232 
250 79.020 34.827 82.873 37.215 18.569 71.240 
251 33.586 100.00 58.033 34.232 75.223 41.534 
252 68.089 100.00 54.471 46.834 79.012 38.778 
253 56.192 0.0000 100.00 30.991 11.748 117.33 
254 39.620 32.827 80.313 16.724 8.0976 66.932 
255 66.953 86.509 0.0000 33.114 57.895 9.2015 
256 18.046 59.907 42.463 9.2372 18.743 13.273 
257 57.584 16.564 27.856 10.406 5.9032 2.3989 
258 65.771 64.234 86.396 37.349 34.126 84.226 
259 19.175 44.280 79.343 15.583 10.830 68.145 
260 100.00 12.319 100.00 61.760 26.349 119.66 
261 0.0000 37.864 100.00 24.365 10.708 122.12 
262 66.645 14.906 100.00 36.874 13.889 121.65 
263 64.728 43.933 13.565 15.907 13.575 1.7281 
264 0.0000 100.00 70.216 35.847 75.700 60.350 
265 0.0000 56.322 64.829 12.900 17.232 39.689 
266 86.394 100.00 64.034 62.211 84.542 52.122 
267 15.286 32.389 60.597 7.0151 4.5939 30.296 
268 37.991 35.871 0.0000 4.6606 5.2799 1.5126 
269 87.895 100.00 100.00 79.183 95.044 130.37 
270 15.890 64.944 21.014 9.3791 23.271 5.4422 
271 83.042 42.158 62.894 33.336 19.951 34.085 
272 56.905 0.0000 68.263 17.253 7.6725 42.268 
273 18.779 78.664 66.892 22.643 42.681 46.208 
274 0.0000 88.435 0.0000 20.758 54.608 10.777 
275 45.878 54.715 14.567 10.518 16.497 3.3052 
276 86.048 0.0000 63.785 34.075 16.130 34.169 
277 78.965 62.701 14.392 30.605 31.965 2.6685 
278 37.576 17.857 33.180 4.1901 2.7649 4.4708 
279 65.461 64.540 35.130 22.829 29.631 8.5560 
280 56.818 86.289 37.172 29.372 54.214 16.004 
281 81.204 64.643 69.726 40.168 35.931 47.784 
282 0.0000 0.0000 64.151 7.3093 3.0111 35.746 
283 52.632 84.625 83.829 38.898 55.328 82.364 
284 61.149 34.159 34.790 13.359 9.1487 5.3355 
285 35.850 58.040 81.134 21.421 21.449 71.378 
286 81.451 37.876 36.780 26.192 16.353 5.7000 
287 40.532 33.510 54.906 8.7863 5.9444 22.721 
288 62.249 80.296 17.904 27.462 47.159 8.1564 
289 82.394 81.014 42.318 42.747 55.927 15.847 
290 62.299 37.749 61.306 18.917 11.889 29.803 
291 65.438 87.967 100.00 55.409 61.815 134.25 
292 43.885 56.516 63.571 16.742 19.238 37.634 
293 69.688 17.905 84.499 30.503 12.623 76.448 
294 80.907 17.979 38.671 25.627 13.164 5.8134 
295 17.922 39.705 31.967 3.2402 5.6540 4.9910 
296 38.120 85.472 46.753 23.986 51.985 22.737 
297 67.314 17.462 58.595 19.720 9.5576 26.829 
298 0.0000 63.966 0.0000 8.6979 21.981 4.7638 
299 62.015 60.503 59.767 23.993 26.084 30.926 
300 18.247 82.294 83.315 31.071 49.638 82.323 
301 60.159 100.00 41.625 40.488 78.815 22.324 
302 86.353 62.199 37.131 37.210 34.661 8.3494 
303 100.00 37.431 100.00 63.725 31.141 114.93 
304 68.408 61.371 100.00 44.729 32.656 126.08 
305 19.140 83.963 16.778 17.956 45.347 10.188 
306 35.279 18.972 15.588 2.9471 2.1980 1.0967 
307 87.502 47.151 12.245 32.484 22.947 0.51702 
308 100.00 45.063 34.937 43.887 27.675 3.2935 
309 56.061 25.739 17.210 9.4546 5.6846 0.91042 
310 18.240 42.987 12.699 3.1061 6.8257 1.9059 
311 13.448 29.863 43.457 3.0451 2.6481 11.142 
312 38.482 74.148 85.897 30.550 38.277 88.784 
313 14.543 83.371 49.222 20.283 46.619 23.975 
314 18.091 13.615 62.432 6.7205 2.7966 32.242 
315 13.815 21.711 13.823 0.95896 1.3143 1.1239 
316 48.683 15.942 83.897 19.798 7.7388 73.550 
317 82.366 80.818 61.248 46.148 56.277 35.825 
318 100.00 68.896 58.265 53.550 47.142 30.977 
319 59.833 100.00 69.215 45.121 81.181 53.002 
320 32.952 0.0000 43.821 4.2406 2.2578 11.004 
321 82.338 13.654 57.479 29.717 14.371 24.000 
322 63.221 60.275 19.031 19.251 24.089 3.8747 
323 100.00 43.344 61.662 47.853 27.834 30.555 
324 53.859 32.356 0.0000 8.9645 6.5474 1.1039 
325 82.507 84.815 17.579 43.556 59.553 9.4231 
326 38.797 66.277 32.675 13.007 25.825 8.3017 
327 66.086 86.828 48.508 35.977 59.374 22.707 
328 0.0000 0.0000 88.968 17.335 5.3231 90.926 
329 30.125 57.327 12.958 7.6893 16.441 3.9245 
330 61.264 0.0000 43.274 13.314 7.0337 10.109 
331 85.243 49.911 88.324 46.583 27.769 87.821 
332 63.651 44.363 42.580 16.776 13.879 10.807 
333 13.066 49.050 0.0000 4.3991 10.088 2.8889 
334 61.358 41.979 89.983 29.630 17.005 86.959 
335 0.0000 42.412 64.591 9.5430 8.3901 37.666 
336 62.252 44.000 0.0000 14.481 12.724 1.8377 
337 12.308 100.00 100.00 50.578 80.660 135.96 
338 73.231 86.634 87.339 52.439 64.729 93.754 
339 66.842 14.120 41.667 16.338 8.5826 8.5658 
340 87.602 49.315 0.0000 33.140 24.411 0.83078 
341 14.359 14.910 38.364 2.1967 1.6071 7.3781 
342 39.463 43.174 27.875 6.4005 8.3657 3.8219 
343 15.038 58.854 84.779 21.692 21.634 83.699 
344 16.321 65.564 57.352 13.903 24.927 29.763 
345 11.684 27.637 87.875 17.019 6.0819 87.592 
346 32.976 11.425 79.662 14.222 5.3681 64.104 
347 87.391 27.974 91.973 47.344 21.102 95.256 
348 87.700 12.565 22.297 29.697 15.411 -0.25856 
349 75.652 15.745 12.400 19.583 10.501 0.21485 
350 45.784 91.194 15.342 27.446 61.678 11.453 
351 85.616 81.955 84.517 58.315 61.346 86.312 
352 68.914 66.736 69.796 33.480 34.673 50.272 
353 50.580 13.330 13.168 7.1884 4.3099 1.0344 
354 100.00 65.344 0.0000 49.178 43.494 2.5945 
355 85.236 68.310 56.605 41.067 41.195 27.059 
356 0.0000 70.154 43.887 13.047 29.213 15.848 
357 8.8704 10.826 20.291 1.0357 1.2611 1.6754 
358 33.792 45.362 86.676 20.461 12.907 85.588 
359 86.950 24.708 17.128 28.976 15.500 -0.63495 
360 49.870 40.050 11.141 8.5301 8.4004 1.7952 
361 37.970 53.234 0.0000 8.0466 14.175 3.2239 
362 86.780 76.613 100.00 63.832 56.353 121.25 
363 44.081 86.600 58.964 28.595 54.538 36.179 
364 37.430 13.704 51.309 6.5258 3.3141 17.858 
365 67.541 87.695 65.666 41.115 61.361 48.826 
366 26.812 54.238 53.736 10.051 14.838 23.446 
367 18.404 51.547 34.272 5.8004 11.885 7.1346 
368 53.134 62.277 87.555 31.148 29.026 88.245 
369 64.284 79.239 84.683 41.792 49.678 84.484 
370 13.229 22.228 0.0000 1.0772 1.4603 1.2755 
371 44.638 38.295 72.054 15.534 9.3723 50.509 
372 88.581 41.336 76.015 41.686 23.240 57.116 
373 47.936 73.793 61.516 23.975 37.335 38.018 
374 91.563 59.878 27.023 39.794 34.375 3.1069 
375 42.823 79.534 37.873 20.484 43.154 12.865 
376 46.953 15.025 23.601 6.1036 3.7502 1.6876 
377 30.550 29.820 67.782 10.179 5.1019 42.096 
378 89.535 84.787 72.979 56.850 66.025 59.843 
379 87.661 33.797 52.807 34.102 18.434 18.684 
380 47.789 70.864 14.405 16.844 32.177 5.9084 
381 60.528 18.196 75.086 21.223 9.1344 54.631 
382 93.131 12.168 74.845 44.180 20.575 51.918 
383 61.377 45.634 100.00 36.540 19.910 120.71 
384 26.537 60.250 0.0000 8.2029 19.043 4.1664 
385 90.859 33.324 23.960 33.136 18.792 4.5135e-03 
386 28.673 29.593 35.912 3.3048 3.1681 6.1381 
387 52.668 13.136 58.645 12.718 6.0638 26.898 
388 11.999 13.366 79.214 12.696 4.2135 65.236 
389 26.536 41.073 100.00 25.838 12.338 123.99 
390 56.977 69.943 100.00 42.723 40.255 126.92 
391 13.126 11.735 100.00 22.995 7.0320 121.13 
392 51.643 100.00 85.500 49.286 77.539 97.633 
393 53.388 100.00 13.698 35.753 78.080 13.309 
394 29.105 84.570 60.605 25.052 51.047 39.275 
395 34.048 49.108 46.295 8.3586 11.629 14.665 
396 0.0000 52.827 88.818 21.240 17.561 89.457 
397 70.149 14.577 29.504 17.022 9.1478 2.3198 
398 36.403 68.651 73.121 22.245 31.114 56.287 
399 29.143 100.00 42.740 30.803 72.663 26.106 
400 51.319 35.519 45.793 10.570 7.7312 12.986 
401 27.057 32.120 86.530 17.711 7.1640 85.123 
402 59.262 28.988 86.844 25.211 11.518 78.150 
403 14.923 31.785 75.040 11.769 5.6237 56.814 
404 10.143 74.057 89.642 29.198 39.322 93.214 
405 30.561 45.554 13.575 4.8279 8.7173 2.4641 
406 8.0083 62.222 75.861 18.727 23.295 62.424 
407 74.656 36.443 16.206 20.937 13.627 0.44254 
408 86.644 53.717 59.630 38.367 28.488 28.977 
409 55.452 49.877 67.673 20.225 16.733 43.737 
410 89.467 56.706 77.742 47.535 33.201 65.078 
411 69.500 49.601 86.098 34.488 22.120 81.708 
412 10.943 90.213 0.0000 21.488 55.792 12.317 
413 55.108 57.247 45.768 16.640 20.525 15.162 
