CTI3   

DESCRIPTOR "Argyll Calibration Target chart information 3"
ORIGINATOR "Argyll dispread"
CREATED "Tue Jan 10 14:28:52 2012"
KEYWORD "DEVICE_CLASS"
DEVICE_CLASS "DISPLAY"
KEYWORD "COLOR_REP"
COLOR_REP "RGB_XYZ"
KEYWORD "TARGET_INSTRUMENT"
TARGET_INSTRUMENT "Hughski ColorHug"
KEYWORD "INSTRUMENT_TYPE_SPECTRAL"
INSTRUMENT_TYPE_SPECTRAL "NO"
KEYWORD "LUMINANCE_XYZ_CDM2"
LUMINANCE_XYZ_CDM2 "150.166473 136.083618 153.918732"
KEYWORD "NORMALIZED_TO_Y_100"
NORMALIZED_TO_Y_100 "YES"

NUMBER_OF_FIELDS 7
BEGIN_DATA_FORMAT
SAMPLE_ID RGB_R RGB_G RGB_B XYZ_X XYZ_Y XYZ_Z 
END_DATA_FORMAT

NUMBER_OF_SETS 836
BEGIN_DATA
1 100.00 100.00 100.00 110.35 100.00 113.11 
2 100.00 100.00 100.00 110.29 99.860 114.08 
3 100.00 100.00 100.00 110.07 100.17 113.94 
4 100.00 100.00 100.00 110.01 100.03 114.91 
5 33.330 32.622 30.968 9.5902 8.7331 9.7757 
6 100.00 0.0000 100.00 89.880 42.148 109.88 
7 100.00 100.00 0.0000 82.382 89.348 6.4959 
8 0.0000 100.00 100.00 48.722 68.772 117.56 
9 0.0000 100.00 0.0000 20.689 57.760 7.6516 
10 0.0000 0.0000 100.00 28.435 10.657 110.93 
11 100.00 0.0000 0.0000 63.088 31.624 4.8158e+04 
12 0.0000 0.0000 0.0000 0.43485 0.055806 0.76765 
13 0.0000 52.455 100.00 32.892 24.764 110.53 
14 100.00 0.0000 50.300 69.257 34.566 22.999 
15 100.00 54.739 100.00 95.365 57.735 109.29 
16 100.00 52.128 0.0000 67.637 45.140 1.1419 
17 0.0000 0.0000 46.181 5.3871 2.0184 19.840 
18 0.0000 51.141 0.0000 5.0127 13.301 1.7384 
19 0.0000 100.00 51.348 27.228 59.937 32.473 
20 100.00 100.00 52.037 89.881 91.506 31.150 
21 49.216 0.0000 0.0000 12.923 6.6602 4.8158e+04 
22 56.159 100.00 0.0000 37.245 66.016 7.5996 
23 49.226 100.00 100.00 60.962 75.278 116.71 
24 44.487 0.0000 100.00 37.941 15.409 110.74 
25 100.00 44.498 52.029 72.489 43.591 27.611 
26 48.926 48.544 100.00 44.627 28.574 112.25 
27 51.368 100.00 47.250 39.682 66.592 27.964 
28 49.893 0.0000 49.033 19.088 8.9211 22.887 
29 53.109 51.372 0.0000 20.047 20.561 2.5617 
30 0.0000 58.587 53.943 13.278 20.515 29.415 
31 100.00 28.065 100.00 91.815 45.972 108.12 
32 0.0000 0.0000 72.874 14.046 5.2353 54.229 
33 0.0000 26.758 100.00 29.470 13.499 111.69 
34 0.0000 25.426 0.0000 1.3153 3.3496 0.40855 
35 72.508 0.0000 100.00 57.790 25.755 108.84 
36 100.00 27.395 0.0000 64.684 35.482 4.8158e+04 
37 74.470 100.00 100.00 79.844 84.283 114.02 
38 100.00 0.0000 25.728 64.988 32.757 4.5901 
39 73.862 0.0000 0.0000 31.871 16.024 0.41730 
40 100.00 100.00 25.402 84.840 90.815 10.457 
41 0.0000 75.751 100.00 39.036 42.137 112.28 
42 0.0000 75.172 0.0000 11.128 30.944 4.2162 
43 0.0000 100.00 25.864 22.124 59.107 12.756 
44 100.00 0.0000 74.801 77.325 37.038 58.823 
45 0.0000 100.00 75.421 35.703 63.876 66.467 
46 24.577 0.0000 0.0000 3.1076 1.6712 1.0736 
47 26.321 100.00 0.0000 23.858 59.571 7.7491 
48 100.00 75.835 0.0000 74.216 62.568 3.6611 
49 100.00 100.00 77.061 99.038 94.458 69.131 
50 71.263 100.00 0.0000 50.103 71.857 7.9085 
51 0.0000 0.0000 15.614 0.65377 0.42391 1.3897 
52 0.0000 30.049 70.936 14.834 9.1206 51.772 
53 100.00 77.691 100.00 101.36 75.099 113.72 
54 24.486 100.00 100.00 50.895 69.511 117.60 
55 100.00 62.784 31.909 72.171 53.191 11.381 
56 29.552 0.0000 100.00 32.101 12.663 110.82 
57 32.980 70.921 100.00 42.656 39.870 113.84 
58 0.0000 27.681 40.241 5.1158 5.1535 14.499 
59 67.901 71.021 100.00 63.156 49.960 112.84 
60 28.154 100.00 67.829 35.971 63.724 53.282 
61 71.637 100.00 70.001 62.595 77.287 56.139 
62 58.822 58.763 53.586 32.321 30.428 28.797 
63 33.466 30.480 0.0000 7.1897 7.1857 0.56215 
64 100.00 73.795 71.277 86.952 66.275 54.634 
65 68.394 29.692 0.0000 28.592 17.797 0.85412 
66 70.399 0.0000 29.039 30.510 15.477 7.1675 
67 28.078 0.0000 26.956 5.2232 2.4911 6.3645 
68 28.532 72.339 0.0000 13.978 30.476 3.9646 
69 100.00 30.941 26.496 66.835 37.392 5.0168 
70 34.597 0.0000 73.611 20.042 8.2096 55.754 
71 71.573 0.0000 72.408 43.090 20.096 53.219 
72 0.0000 71.029 29.412 11.805 28.135 11.051 
73 68.386 75.008 0.0000 37.470 44.460 3.6261 
74 68.088 27.309 100.00 55.161 27.272 110.19 
75 100.00 26.457 73.749 78.326 39.930 56.035 
76 74.344 100.00 27.392 54.395 74.096 13.714 
77 27.558 100.00 28.197 25.880 59.841 14.266 
78 31.196 27.465 100.00 33.292 16.194 109.38 
79 0.0000 75.521 72.824 24.771 36.533 57.428 
80 0.0000 50.930 25.553 6.3834 13.828 7.3420 
81 32.060 33.584 64.033 17.222 11.610 41.031 
82 81.666 55.380 0.0000 45.558 35.736 1.1394 
83 68.257 32.751 58.286 36.694 21.820 33.104 
84 0.0000 55.248 81.585 23.954 22.181 73.169 
85 73.781 52.099 100.00 63.953 39.675 111.76 
86 100.00 50.537 82.952 86.538 51.108 75.193 
87 23.550 0.0000 50.439 9.0250 3.8344 24.256 
88 31.335 62.746 31.114 14.455 23.847 11.345 
89 100.00 18.310 49.418 69.851 35.991 22.041 
90 26.498 48.404 0.0000 7.6177 13.416 2.0676 
91 47.910 100.00 85.744 52.428 71.880 84.167 
92 71.829 47.313 31.811 35.890 27.333 9.6967 
93 31.304 64.132 69.316 24.581 28.820 50.588 
94 80.403 0.0000 54.321 45.125 22.419 27.654 
95 18.455 50.036 100.00 33.758 24.195 111.59 
96 50.653 100.00 16.345 34.733 65.310 9.3683 
97 80.121 100.00 52.261 64.693 79.290 33.398 
98 0.0000 22.540 19.289 2.0291 2.7721 4.1459 
99 100.00 75.273 46.886 78.951 63.702 25.912 
100 0.0000 78.618 56.625 20.104 36.900 35.154 
101 51.137 80.627 100.00 54.395 53.036 114.40 
102 48.446 0.0000 17.864 13.453 6.8050 3.1512 
103 100.00 50.023 21.211 68.847 44.758 4.6708 
104 50.115 20.118 0.0000 14.203 8.9194 4.8159e+04 
105 58.099 72.426 33.158 30.975 38.548 12.757 
106 19.364 100.00 50.197 28.067 60.780 30.934 
107 50.683 19.177 100.00 41.798 19.195 108.66 
108 53.370 0.0000 81.576 33.099 14.668 69.765 
109 47.768 76.245 0.0000 23.184 38.173 2.9666 
110 0.0000 18.927 55.503 8.3197 4.8516 29.072 
111 0.0000 13.277 0.0000 0.53196 1.2857 0.018165 
112 72.862 72.473 75.625 55.737 49.754 63.207 
113 100.00 13.904 0.0000 62.875 32.617 4.8158e+04 
114 86.349 0.0000 100.00 72.794 33.286 110.39 
115 100.00 41.941 100.00 93.510 50.598 111.23 
116 100.00 81.785 16.464 76.939 68.676 6.5760 
117 0.0000 44.063 52.596 10.361 11.947 27.999 
118 0.0000 0.0000 58.917 8.9070 3.3146 34.285 
119 59.250 24.551 29.789 22.317 13.394 7.2836 
120 82.730 82.874 100.00 81.925 69.403 111.90 
121 80.039 0.0000 12.618 38.458 19.743 0.50801 
122 60.957 47.729 77.817 41.052 27.830 65.749 
123 100.00 0.0000 38.618 66.670 33.060 12.914 
124 0.0000 40.090 100.00 31.350 18.545 111.87 
125 0.0000 15.283 82.322 19.063 8.0179 72.802 
126 17.592 81.726 100.00 42.223 48.030 115.24 
127 100.00 14.130 100.00 91.092 42.906 110.08 
128 15.261 100.00 82.059 39.498 64.319 79.605 
129 47.770 79.418 60.389 33.747 44.343 39.654 
130 18.768 16.429 0.0000 2.4274 2.1981 0.88667 
131 55.634 100.00 65.763 48.272 70.371 51.452 
132 100.00 100.00 38.541 86.179 90.471 20.110 
133 17.421 0.0000 83.497 20.149 7.8172 74.483 
134 17.237 16.758 100.00 29.899 12.194 111.51 
135 0.0000 15.067 30.039 2.4623 1.6870 8.2374 
136 0.0000 0.0000 86.505 20.961 8.0091 81.271 
137 75.736 72.799 50.020 49.623 47.654 26.800 
138 100.00 83.323 85.529 96.256 78.153 80.226 
139 100.00 100.00 64.894 93.872 93.948 46.589 
140 81.980 84.914 0.0000 54.616 60.996 3.8304 
141 0.0000 63.757 15.490 8.3030 21.785 4.8981 
142 49.514 66.135 100.00 48.235 39.797 111.96 
143 100.00 0.0000 61.862 71.036 34.498 37.697 
144 24.308 45.410 49.831 12.288 13.730 24.818 
145 15.963 0.0000 17.047 1.8042 1.0432 2.5710 
146 87.497 100.00 100.00 93.135 89.038 118.42 
147 52.099 25.003 75.752 30.367 15.655 59.987 
148 14.909 81.162 0.0000 13.691 36.143 5.0564 
149 0.0000 34.792 14.626 2.7230 6.1078 2.9149 
150 48.390 45.075 22.552 17.089 16.617 5.4572 
151 83.545 65.965 100.00 77.122 54.429 109.35 
152 16.226 62.345 0.0000 8.6395 21.071 2.6150 
153 63.222 0.0000 14.914 23.020 11.696 1.9910 
154 80.449 13.446 0.0000 38.739 20.251 0.15394 
155 83.917 41.562 0.0000 45.535 29.832 1.1280 
156 100.00 60.448 46.300 75.093 52.842 22.507 
157 15.584 0.0000 34.795 4.0152 1.9521 10.436 
158 17.144 65.121 100.00 36.989 33.681 112.40 
159 83.602 55.334 62.667 57.080 40.746 40.983 
160 0.0000 82.190 14.220 13.915 37.872 6.6314 
161 25.132 74.856 50.616 19.902 34.000 28.099 
162 0.0000 13.769 100.00 28.500 11.477 110.43 
163 87.181 0.0000 0.0000 46.813 23.876 4.8158e+04 
164 0.0000 100.00 39.190 24.335 60.016 20.621 
165 78.047 65.914 19.865 44.653 41.608 4.8685 
166 100.00 63.961 15.865 70.741 53.666 3.4297 
167 100.00 45.955 36.032 69.314 43.622 12.313 
168 15.926 100.00 16.890 22.277 59.116 10.077 
169 41.459 100.00 0.0000 29.449 62.219 7.7803 
170 48.707 37.288 48.139 20.539 15.271 23.249 
171 83.381 100.00 13.285 62.468 78.182 8.9023 
172 78.129 25.303 75.621 52.452 26.420 60.943 
173 12.396 0.0000 0.0000 0.96385 0.66115 0.30935 
174 37.607 48.336 83.346 30.436 22.168 76.380 
175 35.588 15.356 0.0000 7.0866 4.5949 0.35872 
176 61.245 100.00 100.00 68.382 78.479 114.31 
177 100.00 67.290 87.195 92.206 64.372 82.121 
178 0.0000 0.0000 30.615 2.3975 0.86702 8.7371 
179 35.187 81.789 83.323 37.945 47.843 77.348 
180 39.525 80.194 22.879 21.707 39.848 9.2982 
181 50.634 34.593 0.0000 15.737 12.637 1.0217 
182 14.175 100.00 63.146 31.244 61.429 46.709 
183 83.493 17.728 34.574 45.394 23.408 11.146 
184 23.463 22.014 79.943 20.149 9.4187 67.358 
185 18.066 31.847 0.0000 3.3078 5.4919 0.52756 
186 87.201 100.00 81.361 84.198 88.056 73.933 
187 0.0000 100.00 87.950 41.715 66.589 88.423 
188 34.476 17.888 46.220 11.729 6.3203 20.511 
189 18.277 0.0000 67.390 13.109 5.2248 45.593 
190 100.00 87.972 0.0000 78.297 75.618 4.8403 
191 82.925 34.850 100.00 70.328 36.852 110.49 
192 0.0000 88.016 100.00 43.706 54.790 115.35 
193 36.104 85.655 100.00 48.730 55.062 115.13 
194 60.981 0.0000 0.0000 20.690 10.728 0.35486 
195 51.466 61.826 78.106 37.415 33.089 66.825 
196 78.427 31.983 22.175 39.375 23.667 4.1758 
197 66.017 44.321 0.0000 28.050 22.005 1.0973 
198 83.941 0.0000 84.177 61.371 29.045 73.594 
199 20.158 46.612 23.269 6.9358 12.802 5.2044 
200 0.0000 100.00 62.618 30.439 62.137 44.675 
201 33.832 0.0000 13.933 6.2152 3.3423 2.1472 
202 100.00 17.286 16.322 63.748 33.409 1.7875 
203 0.0000 42.204 83.926 22.321 16.092 76.211 
204 0.0000 87.774 0.0000 15.393 43.271 5.7908 
205 64.988 0.0000 59.017 32.547 15.485 34.115 
206 14.677 0.0000 100.00 28.497 10.797 109.95 
207 88.934 82.673 35.021 64.835 63.569 14.508 
208 0.0000 63.778 100.00 35.338 32.186 110.95 
209 83.429 17.674 100.00 69.597 32.887 107.69 
210 30.899 100.00 85.668 44.847 67.770 84.493 
211 83.680 0.0000 41.016 46.141 23.241 14.633 
212 100.00 63.515 0.0000 70.332 52.659 1.4593 
213 85.074 69.987 0.0000 52.676 48.276 2.9390 
214 20.801 45.524 69.018 18.114 16.024 49.702 
215 21.382 82.482 73.017 29.265 43.735 59.363 
216 100.00 15.128 64.249 74.085 36.710 40.223 
217 36.522 0.0000 58.427 15.337 6.8052 32.777 
218 22.466 81.296 33.007 17.800 38.644 14.267 
219 62.531 87.152 0.0000 37.073 53.710 5.2523 
220 84.120 85.397 67.886 68.689 66.882 49.733 
221 18.870 27.336 45.389 7.9764 6.2664 19.477 
222 66.439 100.00 14.444 45.976 70.745 8.4546 
223 41.636 22.147 19.003 10.603 7.2727 3.4027 
224 61.271 100.00 81.940 58.821 74.741 78.633 
225 86.013 100.00 0.0000 64.767 79.881 7.4645 
226 37.570 0.0000 0.0000 7.3320 4.0122 4.8158e+04 
227 100.00 16.132 84.102 82.156 39.862 76.523 
228 0.0000 100.00 13.619 21.278 57.364 9.5410 
229 38.905 100.00 56.471 35.866 63.656 38.354 
230 100.00 15.382 34.563 66.578 33.652 10.816 
231 36.656 14.908 100.00 34.588 14.321 110.25 
232 0.0000 62.593 66.608 18.422 24.257 46.512 
233 66.347 12.528 100.00 51.796 23.461 107.79 
234 100.00 43.375 69.233 77.317 45.274 48.636 
235 100.00 56.360 61.236 76.678 50.314 38.704 
236 0.0000 86.194 44.955 19.591 42.899 23.746 
237 64.527 87.262 100.00 65.260 64.269 116.28 
238 34.411 0.0000 42.471 9.9834 4.7362 16.488 
239 80.230 59.707 85.120 63.295 44.297 80.918 
240 20.625 19.056 14.791 3.2677 2.5801 3.1483 
241 15.341 34.221 100.00 30.782 16.169 111.62 
242 36.777 0.0000 87.905 28.448 11.109 85.971 
243 34.598 56.247 100.00 39.606 28.982 112.94 
244 20.860 67.629 17.418 11.511 25.366 5.6987 
245 44.958 60.843 18.054 18.607 24.467 5.7961 
246 37.421 60.193 0.0000 13.914 22.121 2.7736 
247 84.011 33.849 42.612 49.203 29.316 15.742 
248 17.241 60.339 37.743 11.284 20.895 14.572 
249 50.650 17.261 53.278 21.301 10.971 27.428 
250 45.505 48.926 65.152 26.068 21.651 43.996 
251 44.567 84.081 39.649 28.344 46.458 19.122 
252 100.00 86.339 72.054 91.096 79.004 58.638 
253 68.140 61.135 0.0000 32.927 32.305 2.8820 
254 17.930 66.986 81.403 27.616 31.041 74.272 
255 39.242 60.215 48.926 20.361 24.890 25.497 
256 20.099 18.770 62.967 12.551 6.4914 39.653 
257 34.553 100.00 14.582 26.869 60.012 9.5722 
258 87.345 0.0000 66.694 58.677 27.932 44.780 
259 0.0000 43.714 39.842 7.2467 10.977 15.048 
260 100.00 37.705 13.955 66.869 38.943 1.4432 
261 31.265 86.993 0.0000 20.017 44.578 5.0362 
262 51.402 82.661 81.338 45.243 51.906 73.576 
263 100.00 100.00 12.984 84.120 90.032 5.7663 
264 0.0000 37.859 0.0000 2.6629 7.1092 0.56724 
265 62.092 58.215 100.00 55.145 38.940 111.19 
266 86.186 100.00 64.100 76.009 84.384 47.662 
267 100.00 35.251 85.898 85.062 45.248 79.834 
268 63.182 89.992 41.974 42.748 58.738 22.367 
269 13.504 100.00 0.0000 21.218 58.365 7.1933 
270 100.00 0.0000 13.228 63.742 32.048 0.83459 
271 63.881 40.826 100.00 53.313 30.171 111.45 
272 69.387 84.838 20.792 42.594 53.716 8.6305 
273 0.0000 70.279 45.136 14.230 27.591 22.385 
274 79.094 64.754 40.908 48.879 41.427 18.298 
275 62.385 54.099 17.396 27.820 25.990 4.0603 
276 64.408 14.621 0.0000 23.891 12.949 0.20251 
277 70.028 15.606 44.651 33.751 17.406 18.643 
278 0.0000 63.544 0.0000 7.6786 21.090 2.7821 
279 83.475 47.274 20.502 46.975 33.000 3.3846 
280 55.866 0.0000 32.671 19.702 10.097 8.8489 
281 58.007 0.0000 100.00 46.266 19.812 110.11 
282 100.00 0.0000 87.698 84.145 39.723 83.290 
283 0.0000 13.792 67.215 11.900 5.1464 45.864 
284 84.123 17.001 58.549 51.593 26.079 33.974 
285 59.579 32.873 15.966 21.887 15.159 3.6686 
286 10.410 32.998 28.659 4.3389 6.0519 7.9378 
287 17.231 40.031 85.650 24.153 15.724 81.380 
288 37.568 41.561 10.108 10.652 12.226 2.2114 
289 0.0000 69.015 85.092 28.928 32.109 81.328 
290 14.442 100.00 36.187 24.143 58.697 18.796 
291 100.00 40.549 0.0000 66.748 39.805 0.071616 
292 82.143 45.435 78.429 60.805 36.946 64.592 
293 52.674 0.0000 67.300 26.528 12.080 45.194 
294 0.0000 87.868 66.793 26.481 47.765 48.667 
295 86.530 100.00 40.524 69.904 82.723 19.808 
296 71.777 85.586 67.232 55.737 60.492 50.650 
297 43.216 100.00 31.671 32.376 63.691 16.059 
298 39.245 32.908 85.845 29.799 17.150 79.482 
299 0.0000 45.662 67.543 15.565 14.688 47.444 
300 12.161 100.00 100.00 48.690 68.362 117.81 
301 67.049 0.0000 85.516 45.189 20.244 79.190 
302 100.00 89.041 100.00 106.48 86.178 115.87 
303 20.246 60.698 56.526 16.638 22.503 34.661 
304 52.177 55.457 40.416 24.134 24.233 17.251 
305 72.617 87.018 83.932 64.704 64.407 80.158 
306 40.512 16.723 66.475 20.473 9.6470 45.121 
307 68.507 49.232 50.605 37.642 28.216 25.598 
308 65.622 100.00 54.525 51.614 71.940 35.791 
309 54.115 37.240 66.394 29.871 18.663 45.948 
310 100.00 76.138 31.267 77.110 63.631 12.190 
311 54.728 65.623 0.0000 24.519 30.535 2.8525 
312 63.126 12.526 64.370 33.143 15.990 40.758 
313 72.827 18.080 23.704 32.904 17.725 4.5037 
314 23.268 15.278 34.947 5.7271 3.5867 10.909 
315 87.648 68.954 59.645 65.246 52.916 36.636 
316 0.0000 85.595 85.198 34.418 49.058 81.690 
317 35.798 84.371 69.210 32.840 47.473 53.830 
318 36.062 47.494 35.919 13.558 16.010 12.646 
319 86.083 36.277 59.152 56.083 32.600 35.433 
320 58.210 100.00 30.361 41.165 67.879 15.461 
321 46.745 14.614 32.317 14.330 7.8169 9.4397 
322 81.573 73.869 86.954 70.479 57.196 86.018 
323 85.991 49.387 48.206 55.067 37.044 23.281 
324 28.062 87.906 19.654 19.805 45.110 9.1674 
325 68.992 17.993 85.124 47.491 22.624 78.229 
326 100.00 66.147 100.00 99.332 65.012 112.16 
327 33.358 64.806 84.517 32.801 31.762 79.933 
328 41.351 17.736 80.522 26.610 12.178 68.925 
329 100.00 100.00 88.719 105.11 97.310 90.111 
330 66.336 0.0000 44.320 29.834 14.622 18.381 
331 64.850 67.090 12.293 32.602 36.201 3.2707 
332 15.262 31.268 63.277 12.902 9.1799 39.753 
333 15.008 43.663 37.300 7.8051 11.312 13.864 
334 0.0000 57.895 38.078 9.7261 18.808 15.220 
335 66.599 58.458 67.871 43.050 34.997 48.773 
336 59.191 18.651 15.215 20.353 11.442 2.6380 
337 66.781 31.140 84.629 45.885 24.261 78.436 
338 88.033 85.158 52.140 68.488 66.725 32.230 
339 36.882 100.00 100.00 55.147 70.441 118.90 
340 26.102 33.094 17.006 5.8276 7.0986 3.5121 
341 56.309 36.861 35.862 22.892 16.670 12.282 
342 45.839 65.587 67.033 30.730 31.803 49.435 
343 83.709 81.172 16.406 56.031 57.580 5.5991 
344 0.0000 48.132 13.005 4.6673 11.973 2.5921 
345 87.176 50.021 100.00 78.953 46.986 109.03 
346 51.219 84.244 13.730 28.396 46.618 5.7920 
347 60.606 71.415 48.406 36.043 39.889 25.124 
348 0.0000 11.359 12.718 0.87270 0.79202 2.0118 
349 86.429 49.705 33.145 52.482 36.679 9.8714 
350 34.056 40.958 100.00 36.509 21.817 111.61 
351 100.00 30.557 59.628 73.503 39.608 35.963 
352 88.497 26.902 13.449 49.465 27.803 1.6044 
353 14.167 51.980 88.218 27.003 22.331 86.619 
354 13.784 12.983 49.370 6.9460 3.6443 22.992 
355 15.018 88.441 48.062 22.087 46.137 28.410 
356 87.790 25.769 89.215 70.333 34.802 87.901 
357 0.0000 33.206 55.865 9.7597 8.0198 31.328 
358 74.324 76.029 35.536 46.331 48.767 14.406 
359 65.863 57.223 42.324 34.825 30.695 18.475 
360 30.893 54.646 13.136 10.612 17.990 3.1990 
361 0.0000 34.360 28.321 3.7205 6.7184 6.7747 
362 15.443 77.087 85.116 31.782 40.998 79.920 
363 63.381 68.947 68.521 43.697 41.595 50.900 
364 69.733 27.566 42.917 33.262 19.712 16.480 
365 32.754 100.00 42.760 30.176 62.301 24.348 
366 47.096 29.481 34.829 16.018 11.083 11.592 
367 8.5451 71.948 62.695 20.090 31.436 43.696 
368 0.0000 86.048 29.300 16.820 42.116 13.266 
369 53.697 51.572 85.367 40.448 28.696 81.217 
370 17.608 56.690 12.515 7.9133 17.325 4.0958 
371 90.638 14.414 49.227 57.795 28.762 23.291 
372 63.248 63.640 89.550 52.034 40.252 91.588 
373 100.00 85.976 58.455 86.667 76.286 38.154 
374 9.8311 28.027 7.5567 2.2174 3.8712 1.6940 
375 89.831 64.313 69.506 69.437 51.644 49.839 
376 31.754 12.995 25.543 6.9967 4.2652 5.8614 
377 75.914 45.966 64.957 48.460 31.973 43.394 
378 7.5735 50.695 58.941 13.485 16.560 35.256 
379 100.00 69.835 58.912 80.593 61.094 36.856 
380 32.211 34.376 48.339 12.956 10.481 23.099 
381 13.901 12.159 73.555 15.634 6.5908 56.654 
382 87.071 9.0280 77.653 62.388 29.406 64.374 
383 23.272 85.409 84.290 36.246 48.470 82.581 
384 93.289 39.480 26.145 58.800 35.538 6.7311 
385 65.769 59.630 30.967 33.178 31.482 10.378 
386 100.00 32.265 41.803 69.825 38.543 16.120 
387 86.568 85.281 86.961 80.919 71.555 85.237 
388 52.577 86.830 30.016 31.887 49.786 13.839 
389 47.921 40.199 76.902 30.633 19.835 62.742 
390 22.360 86.619 61.580 26.533 46.324 42.461 
391 52.232 33.601 88.787 38.408 21.140 86.089 
392 0.0000 28.523 86.267 21.903 11.443 79.936 
393 43.497 67.879 39.551 22.113 31.038 16.226 
394 39.877 45.261 0.0000 11.961 14.215 1.6670 
395 86.940 12.430 24.699 47.967 24.715 4.6007 
396 28.363 55.339 90.398 32.075 25.954 92.338 
397 39.018 70.534 57.879 25.611 33.504 36.150 
398 12.833 28.519 78.828 18.570 10.104 66.363 
399 68.350 31.815 69.975 41.022 23.088 50.060 
400 56.520 26.226 41.626 22.574 13.931 15.733 
401 12.938 46.218 0.0000 4.7261 11.432 1.1395 
402 8.6938 60.179 26.117 8.5467 20.061 7.6412 
403 51.995 89.429 96.608 56.472 62.823 106.43 
404 46.905 47.746 48.909 21.674 20.024 23.739 
405 14.352 81.814 19.479 15.034 38.081 8.0625 
406 71.482 38.117 12.273 32.515 21.942 2.0683 
407 86.616 60.785 10.012 53.117 42.157 2.9689 
408 71.811 88.979 52.186 51.978 62.741 30.614 
409 43.213 100.00 72.083 43.589 68.004 60.783 
410 73.920 23.444 8.2853 32.719 18.908 0.30800 
411 40.629 85.534 53.423 29.785 47.564 32.303 
412 38.955 52.128 22.885 13.809 18.389 5.8940 
413 46.480 12.229 8.6707 11.652 6.4422 1.0567 
