CTI3   

DESCRIPTOR "Argyll Calibration Target chart information 3"
ORIGINATOR "Argyll dispread"
CREATED "Thu Mar  8 07:58:55 2012"
KEYWORD "DEVICE_CLASS"
DEVICE_CLASS "DISPLAY"
KEYWORD "COLOR_REP"
COLOR_REP "RGB_XYZ"
KEYWORD "TARGET_INSTRUMENT"
TARGET_INSTRUMENT "Hughski ColorHug"
KEYWORD "INSTRUMENT_TYPE_SPECTRAL"
INSTRUMENT_TYPE_SPECTRAL "NO"
KEYWORD "LUMINANCE_XYZ_CDM2"
LUMINANCE_XYZ_CDM2 "83.086685 89.959351 152.384583"
KEYWORD "NORMALIZED_TO_Y_100"
NORMALIZED_TO_Y_100 "YES"

NUMBER_OF_FIELDS 7
BEGIN_DATA_FORMAT
SAMPLE_ID RGB_R RGB_G RGB_B XYZ_X XYZ_Y XYZ_Z 
END_DATA_FORMAT

NUMBER_OF_SETS 836
BEGIN_DATA
1 100.00 100.00 100.00 92.360 100.00 169.39 
2 100.00 100.00 100.00 93.222 99.283 172.62 
3 100.00 100.00 100.00 93.968 102.18 172.66 
4 100.00 100.00 100.00 93.746 101.28 189.16 
5 0.0000 100.00 100.00 61.250 83.702 192.74 
6 0.0000 0.0000 0.0000 0.97061 1.1979 1.2443 
7 0.0000 0.0000 100.00 32.247 10.802 169.51 
8 100.00 0.0000 0.0000 35.097 18.315 -1.1671 
9 100.00 100.00 0.0000 64.104 88.787 16.486 
10 0.0000 100.00 0.0000 28.375 72.907 16.994 
11 100.00 0.0000 100.00 68.817 27.399 175.31 
12 0.0000 49.772 100.00 37.075 18.903 180.66 
13 0.0000 52.030 0.0000 5.1276 12.223 3.3675 
14 0.0000 0.0000 52.760 6.6786 2.8707 32.585 
15 100.00 0.0000 45.125 38.311 19.047 18.918 
16 100.00 49.621 100.00 72.072 38.029 173.47 
17 100.00 53.697 0.0000 40.466 30.655 0.94291 
18 44.554 0.0000 0.0000 4.3527 2.8275 0.94827 
19 100.00 100.00 46.389 66.494 89.383 38.575 
20 0.0000 100.00 55.657 35.408 73.798 55.918 
21 49.477 100.00 100.00 65.837 86.959 191.13 
22 46.306 100.00 0.0000 32.455 75.199 16.382 
23 40.510 0.0000 100.00 35.824 11.173 177.70 
24 0.0000 52.807 50.635 10.382 14.358 30.392 
25 100.00 52.549 51.288 46.139 31.679 30.158 
26 49.732 47.591 0.0000 8.8895 11.677 2.2616 
27 48.223 0.0000 52.651 10.889 5.0497 31.161 
28 50.614 55.771 100.00 43.254 26.471 176.63 
29 49.932 100.00 55.492 39.895 76.611 51.532 
30 0.0000 25.869 0.0000 1.1710 1.7720 1.4092 
31 0.0000 0.0000 26.745 1.4828 1.3220 4.3653 
32 100.00 0.0000 72.532 49.174 22.114 76.627 
33 100.00 27.894 0.0000 36.449 19.436 -1.3895 
34 0.0000 100.00 28.029 29.394 75.384 19.716 
35 100.00 74.559 100.00 81.212 59.323 182.09 
36 0.0000 74.784 100.00 45.821 40.470 186.45 
37 100.00 100.00 74.254 78.825 97.816 92.732 
38 73.667 100.00 0.0000 44.708 83.663 12.785 
39 71.872 0.0000 100.00 47.092 17.149 172.49 
40 75.331 100.00 100.00 77.485 92.809 186.72 
41 72.712 0.0000 0.0000 15.864 8.5091 0.30314 
42 0.0000 25.804 100.00 33.077 10.940 174.20 
43 28.281 0.0000 0.0000 1.5598 1.3823 1.2376 
44 51.446 48.218 54.003 15.578 13.988 36.004 
45 100.00 100.00 29.937 63.015 92.246 17.047 
46 100.00 25.040 100.00 68.526 27.390 175.68 
47 0.0000 76.268 0.0000 14.273 37.102 7.3984 
48 24.793 100.00 100.00 58.500 86.555 170.99 
49 100.00 0.0000 27.673 36.758 18.755 2.2597 
50 100.00 76.963 0.0000 48.823 55.437 5.8278 
51 0.0000 0.0000 76.526 16.902 5.6796 87.846 
52 20.393 0.0000 100.00 32.355 10.802 169.76 
53 16.434 100.00 0.0000 28.639 75.918 15.171 
54 0.0000 100.00 83.902 48.822 80.870 127.00 
55 36.269 29.322 100.00 35.249 11.618 177.06 
56 0.0000 31.510 72.981 16.000 6.5391 80.647 
57 73.108 72.977 0.0000 27.721 40.190 5.7129 
58 32.622 73.057 0.0000 13.826 33.469 6.5669 
59 71.440 0.0000 32.833 16.254 8.6158 7.0988 
60 67.360 30.655 100.00 46.254 17.474 177.86 
61 100.00 32.435 69.725 49.611 24.241 67.171 
62 71.564 100.00 33.694 44.992 82.748 21.878 
63 0.0000 29.065 27.751 1.9916 2.4694 4.9419 
64 30.289 100.00 27.578 29.826 76.156 18.021 
65 100.00 73.586 74.348 63.618 56.433 86.142 
66 0.0000 71.529 28.374 12.706 30.995 10.292 
67 31.776 0.0000 27.675 2.5896 1.9118 4.5249 
68 0.0000 72.764 72.179 26.537 35.815 83.106 
69 100.00 71.739 30.730 47.026 47.744 9.9884 
70 68.944 29.578 0.0000 14.173 8.6274 0.46932 
71 27.661 73.523 100.00 44.802 44.103 173.49 
72 73.052 0.0000 71.273 29.475 12.438 72.304 
73 100.00 29.114 32.478 37.412 19.824 5.6275 
74 26.539 0.0000 74.456 16.205 5.6605 81.651 
75 74.574 100.00 69.826 55.789 84.418 86.554 
76 28.869 100.00 71.428 41.139 75.226 82.371 
77 29.597 24.401 0.0000 1.8583 2.0367 1.0473 
78 70.927 76.065 100.00 60.896 52.300 182.28 
79 27.482 52.084 27.416 6.3503 12.681 6.6374 
80 26.713 44.947 0.0000 4.0260 8.1319 2.4421 
81 71.088 69.567 55.036 31.344 37.696 39.261 
82 100.00 80.666 49.689 56.880 60.505 35.326 
83 0.0000 49.644 76.396 21.062 15.202 93.070 
84 74.997 48.292 100.00 53.249 27.374 178.10 
85 30.106 69.463 56.017 18.864 30.883 43.924 
86 43.286 26.755 23.045 4.5408 3.4331 2.7729 
87 74.178 48.460 28.303 20.548 17.942 5.4199 
88 0.0000 45.287 19.075 3.6236 7.8920 3.2612 
89 25.019 55.855 100.00 38.701 25.117 177.13 
90 25.534 24.047 47.724 5.7223 2.9460 24.181 
91 50.479 0.0000 83.513 26.658 9.0450 114.19 
92 44.803 100.00 71.728 45.950 81.490 88.446 
93 17.575 0.0000 48.903 5.5623 2.5266 25.868 
94 54.486 68.666 25.247 17.669 30.706 8.1154 
95 17.389 100.00 52.794 34.271 75.961 47.478 
96 0.0000 84.157 50.767 23.464 47.637 39.528 
97 72.992 28.210 48.246 20.742 10.821 24.271 
98 52.611 83.840 100.00 56.581 60.280 185.39 
99 75.352 45.506 0.0000 19.863 16.158 1.3590 
100 0.0000 14.740 49.422 5.5855 2.5961 26.379 
101 100.00 25.426 51.635 41.416 20.539 28.552 
102 100.00 50.477 80.970 58.923 34.629 101.58 
103 100.00 53.335 25.883 41.216 30.665 3.4995 
104 48.377 19.285 0.0000 5.2826 3.3917 0.89742 
105 49.554 83.843 0.0000 23.167 50.630 8.8666 
106 48.236 0.0000 17.016 5.3614 3.3371 1.4632 
107 0.0000 15.223 16.409 1.0100 1.1706 1.5271 
108 80.824 0.0000 48.615 25.085 12.342 24.025 
109 31.775 44.060 69.079 16.779 11.143 70.491 
110 51.019 100.00 27.603 34.700 76.796 19.519 
111 58.770 29.896 73.262 24.028 10.279 81.346 
112 0.0000 0.0000 13.289 0.97061 1.1979 1.2443 
113 81.710 100.00 49.485 54.136 86.503 41.204 
114 0.0000 13.147 0.0000 0.97061 1.1979 1.2443 
115 100.00 0.0000 57.896 43.870 20.549 40.637 
116 50.001 69.176 72.132 30.308 34.231 83.714 
117 0.0000 87.688 100.00 53.071 63.868 186.33 
118 71.869 54.831 69.907 33.309 25.084 73.587 
119 82.143 16.149 0.0000 21.833 11.505 -0.17357 
120 100.00 87.564 100.00 87.292 74.525 185.40 
121 100.00 14.495 0.0000 36.059 18.686 -1.6738 
122 61.965 100.00 100.00 70.140 87.847 189.59 
123 83.813 100.00 17.552 50.785 85.882 15.236 
124 50.222 18.338 100.00 38.319 12.443 177.04 
125 20.108 23.686 100.00 33.618 10.160 178.12 
126 82.329 0.0000 17.488 22.200 11.706 0.15625 
127 82.988 17.497 100.00 54.283 20.124 175.84 
128 85.854 0.0000 100.00 57.214 22.101 174.92 
129 100.00 18.671 83.334 56.614 24.303 109.10 
130 0.0000 100.00 42.183 31.090 74.920 30.630 
131 84.389 84.779 0.0000 42.060 61.196 7.8964 
132 86.979 100.00 0.0000 51.957 87.522 12.815 
133 100.00 40.961 0.0000 36.441 22.705 0.069357 
134 13.519 35.951 100.00 34.472 13.058 178.41 
135 0.0000 18.691 83.992 21.320 7.2143 111.57 
136 75.591 26.816 22.157 17.958 10.200 1.4791 
137 0.0000 100.00 13.753 28.304 73.607 16.611 
138 84.392 100.00 83.127 71.653 92.171 121.89 
139 100.00 83.416 17.234 53.507 63.779 8.2270 
140 83.965 33.908 100.00 55.527 23.112 175.41 
141 100.00 100.00 87.538 87.303 99.462 139.99 
142 86.631 0.0000 0.0000 25.107 13.135 -0.71622 
143 73.839 78.145 31.992 32.289 48.202 13.082 
144 0.0000 39.871 0.0000 2.5533 5.4739 1.9163 
145 45.403 65.868 0.0000 13.290 26.008 5.1882 
146 24.496 78.282 37.062 17.614 40.775 18.210 
147 74.349 80.128 74.975 47.197 52.600 87.486 
148 100.00 100.00 59.816 71.498 90.871 62.981 
149 21.512 19.178 24.465 1.5708 1.4833 3.4081 
150 21.152 65.244 78.145 27.294 29.055 101.58 
151 0.0000 39.445 51.456 7.6801 6.5173 30.728 
152 0.0000 37.119 86.142 23.507 11.231 116.39 
153 21.895 22.364 77.185 17.742 6.0328 91.014 
154 22.527 45.447 46.235 7.5650 9.3406 22.711 
155 100.00 61.208 100.00 75.233 44.433 177.73 
156 100.00 36.525 84.478 58.641 27.421 116.16 
157 17.251 0.0000 16.491 1.0100 1.1706 1.5271 
158 50.352 22.875 47.038 9.9878 5.0008 22.813 
159 51.534 35.754 100.00 39.540 15.840 175.54 
160 100.00 57.667 68.630 54.205 37.592 68.931 
161 0.0000 0.0000 40.019 3.3174 1.8697 14.094 
162 20.286 81.615 0.0000 16.889 43.097 9.5520 
163 13.966 66.654 0.0000 9.8493 24.750 5.5660 
164 100.00 17.864 17.617 35.601 18.570 -0.90965 
165 100.00 85.795 34.302 55.949 67.471 15.952 
166 0.0000 13.186 100.00 32.837 10.393 173.75 
167 100.00 100.00 15.296 62.150 87.992 17.819 
168 87.292 67.174 0.0000 34.373 37.685 4.0265 
169 63.018 15.087 0.0000 10.786 6.1051 0.44613 
170 60.527 100.00 0.0000 37.115 78.897 15.617 
171 100.00 0.0000 86.208 58.295 24.894 119.13 
172 35.131 100.00 85.790 52.162 82.791 134.08 
173 60.211 57.971 0.0000 15.662 21.116 3.3929 
174 54.472 76.856 50.879 26.052 41.173 36.065 
175 35.811 86.175 100.00 51.968 63.178 172.55 
176 0.0000 84.051 17.442 18.403 46.867 10.817 
177 100.00 14.213 35.817 37.788 18.987 7.6719 
178 43.710 100.00 40.760 34.493 77.825 29.869 
179 0.0000 14.517 67.391 12.416 4.1184 64.162 
180 44.831 0.0000 34.146 5.7771 3.2660 8.6329 
181 53.257 48.450 32.182 11.427 13.169 8.7197 
182 80.634 21.747 68.401 33.139 14.505 66.647 
183 33.047 87.184 0.0000 21.526 54.604 9.2971 
184 76.764 52.568 51.162 27.669 22.627 29.844 
185 100.00 15.270 67.250 47.315 21.612 62.693 
186 0.0000 85.277 65.703 30.440 53.507 71.402 
187 33.745 0.0000 87.227 25.347 7.9812 127.48 
188 34.414 0.0000 14.509 2.3524 1.8936 1.2591 
189 0.0000 68.669 57.560 18.092 29.731 45.662 
190 0.0000 66.827 12.553 10.076 25.625 5.5486 
191 67.404 100.00 18.898 40.810 78.689 17.684 
192 36.493 12.179 0.0000 2.6273 1.9995 1.1144 
193 16.869 100.00 83.869 49.090 76.730 130.43 
194 0.0000 30.989 14.139 1.5059 2.6464 1.6385 
195 85.031 31.706 0.0000 24.739 14.320 -0.45339 
196 0.0000 87.999 83.008 40.531 61.399 116.79 
197 53.960 50.013 80.356 29.571 19.277 104.87 
198 83.973 0.0000 82.844 42.492 17.483 107.29 
199 0.0000 64.669 82.369 29.158 28.881 113.67 
200 0.0000 56.916 36.220 8.1181 16.076 13.065 
201 15.312 0.0000 65.704 11.785 4.0762 60.192 
202 57.952 0.0000 0.0000 8.5959 4.9949 0.63765 
203 67.104 0.0000 57.104 19.998 9.0958 39.726 
204 86.646 0.0000 34.750 26.830 13.749 7.3344 
205 38.496 15.162 64.774 13.349 5.0788 57.463 
206 100.00 0.0000 13.908 34.586 18.076 -0.59470 
207 0.0000 62.707 100.00 39.087 31.267 168.43 
208 14.974 0.0000 85.629 23.020 6.9827 121.79 
209 100.00 84.721 85.106 75.938 73.270 125.11 
210 17.977 11.338 0.0000 1.0393 1.2243 1.2081 
211 36.369 80.565 73.488 33.176 48.752 89.507 
212 36.429 100.00 14.052 30.404 76.719 15.288 
213 17.842 34.779 0.0000 1.9916 3.7243 1.7043 
214 68.014 100.00 85.106 62.480 87.589 130.40 
215 67.422 0.0000 85.546 35.056 13.054 120.48 
216 82.617 66.865 86.564 54.831 43.553 128.07 
217 17.323 100.00 16.561 28.505 76.097 14.550 
218 36.759 62.157 100.00 42.639 30.743 181.04 
219 100.00 63.264 42.070 46.787 39.518 17.612 
220 17.144 85.171 100.00 51.951 60.122 185.77 
221 82.628 88.517 100.00 74.742 69.849 188.01 
222 42.508 59.162 43.030 13.261 20.159 21.139 
223 15.879 0.0000 32.514 2.1718 1.4717 7.6968 
224 13.914 0.0000 0.0000 0.97061 1.1979 1.2443 
225 0.0000 14.875 31.793 2.0243 1.4998 7.1672 
226 40.699 46.047 100.00 38.569 18.739 177.51 
227 33.094 13.607 100.00 34.213 10.625 175.16 
228 86.363 100.00 34.880 54.763 87.698 21.627 
229 100.00 86.140 66.213 65.217 70.669 68.209 
230 14.817 100.00 34.636 30.142 74.865 25.090 
231 100.00 34.683 17.474 36.595 20.795 -0.26727 
232 14.768 100.00 68.024 40.402 78.373 80.215 
233 31.864 0.0000 58.806 9.7643 3.7485 43.696 
234 0.0000 86.128 34.446 21.020 52.268 17.220 
235 83.837 63.507 100.00 61.691 42.158 180.09 
236 100.00 65.852 15.459 45.170 42.139 2.9134 
237 100.00 88.682 0.0000 56.405 73.350 9.3419 
238 37.474 100.00 100.00 62.844 85.716 188.58 
239 37.249 37.275 40.035 6.4674 6.1251 14.581 
240 38.416 79.284 18.329 17.694 41.231 8.4339 
241 100.00 36.249 45.449 40.962 22.553 18.875 
242 0.0000 42.567 34.875 4.5260 7.0325 10.460 
243 13.662 68.478 100.00 42.104 36.676 174.70 
244 65.114 0.0000 15.658 11.618 6.5890 0.75055 
245 16.651 51.372 62.148 14.108 14.553 52.587 
246 30.301 32.686 17.311 2.5411 3.4571 1.9711 
247 31.443 100.00 0.0000 29.446 74.713 15.065 
248 100.00 65.622 86.329 67.229 47.364 124.61 
249 55.905 83.078 65.229 34.868 51.158 65.557 
250 79.020 34.827 82.873 40.500 19.110 105.55 
251 33.586 100.00 58.033 37.789 77.794 58.463 
252 68.089 100.00 54.471 47.478 81.459 48.098 
253 56.192 0.0000 100.00 40.333 13.527 176.64 
254 39.620 32.827 80.313 22.706 9.2641 103.82 
255 66.953 86.509 0.0000 32.077 58.527 8.5660 
256 18.046 59.907 42.463 10.472 19.424 20.178 
257 57.584 16.564 27.856 9.1707 5.1612 4.5523 
258 65.771 64.234 86.396 42.932 35.305 126.14 
259 19.175 44.280 79.343 21.245 12.702 98.926 
260 100.00 12.319 100.00 68.151 28.095 169.81 
261 0.0000 37.864 100.00 34.557 13.467 177.59 
262 66.645 14.906 100.00 44.939 15.962 175.23 
263 64.728 43.933 13.565 13.818 12.491 1.6895 
264 0.0000 100.00 70.216 41.925 78.891 87.544 
265 0.0000 56.322 64.829 16.252 18.845 57.265 
266 86.394 100.00 64.034 62.684 89.924 67.322 
267 15.286 32.389 60.597 10.214 5.3997 48.184 
268 37.991 35.871 0.0000 3.9890 4.9056 1.5302 
269 87.895 100.00 100.00 86.545 97.128 188.45 
270 15.890 64.944 21.014 9.5240 23.315 6.4949 
271 83.042 42.158 62.894 34.497 19.671 53.757 
272 56.905 0.0000 68.263 19.924 8.1794 64.275 
273 18.779 78.664 66.892 26.810 42.328 70.603 
274 0.0000 88.435 0.0000 21.028 55.424 10.927 
275 45.878 54.715 14.567 9.6416 16.131 3.6415 
276 86.048 0.0000 63.785 35.003 15.715 54.498 
277 78.965 62.701 14.392 27.083 30.368 3.7776 
278 37.576 17.857 33.180 4.1398 2.5993 7.8418 
279 65.461 64.540 35.130 21.893 28.659 13.040 
280 56.818 86.289 37.172 29.130 54.452 21.586 
281 81.204 64.643 69.726 41.757 37.011 68.305 
282 0.0000 0.0000 64.151 11.004 3.8305 56.386 
283 52.632 84.625 83.829 45.250 56.864 122.44 
284 61.149 34.159 34.790 12.312 8.4247 9.2436 
285 35.850 58.040 81.134 27.411 23.275 106.84 
286 81.451 37.876 36.780 24.749 15.347 10.390 
287 40.532 33.510 54.906 10.608 6.2319 36.422 
288 62.249 80.296 17.904 26.235 46.350 9.0166 
289 82.394 81.014 42.318 40.208 53.480 25.481 
290 62.299 37.749 61.306 20.542 11.868 48.838 
291 65.438 87.967 100.00 61.899 69.688 171.07 
292 43.885 56.516 63.571 19.617 20.093 57.753 
293 69.688 17.905 84.499 35.263 13.480 115.98 
294 80.907 17.979 38.671 23.397 11.881 11.132 
295 17.922 39.705 31.967 3.6625 5.6518 7.8942 
296 38.120 85.472 46.753 25.184 52.906 31.491 
297 67.314 17.462 58.595 20.808 9.3953 43.213 
298 0.0000 63.966 0.0000 8.8019 21.922 5.2882 
299 62.015 60.503 59.767 25.213 26.188 48.620 
300 18.247 82.294 83.315 37.201 52.790 113.57 
301 60.159 100.00 41.625 39.984 76.787 33.266 
302 86.353 62.199 37.131 34.392 33.097 13.931 
303 100.00 37.431 100.00 69.345 31.027 174.44 
304 68.408 61.371 100.00 53.565 35.513 180.83 
305 19.140 83.963 16.778 18.255 46.895 10.287 
306 35.279 18.972 15.588 2.5424 2.0698 1.3785 
307 87.502 47.151 12.245 29.221 21.428 0.76870 
308 100.00 45.063 34.937 40.274 25.871 7.9554 
309 56.061 25.739 17.210 8.2332 5.2067 1.1833 
310 18.240 42.987 12.699 3.2261 6.9754 2.2382 
311 13.448 29.863 43.457 4.5385 3.2363 18.513 
312 38.482 74.148 85.897 37.046 42.578 123.16 
313 14.543 83.371 49.222 22.801 47.309 36.570 
314 18.091 13.615 62.432 10.282 3.6923 51.942 
315 13.815 21.711 13.823 1.0232 1.3211 1.4360 
316 48.683 15.942 83.897 26.455 8.9002 115.73 
317 82.366 80.818 61.248 46.770 57.259 52.274 
318 100.00 68.896 58.265 54.309 48.011 47.245 
319 59.833 100.00 69.215 48.714 79.725 76.629 
320 32.952 0.0000 43.821 5.3527 2.6771 18.590 
321 82.338 13.654 57.479 29.437 13.585 40.121 
322 63.221 60.275 19.031 17.694 23.904 4.2311 
323 100.00 43.344 61.662 46.967 27.044 47.936 
324 53.859 32.356 0.0000 7.7466 5.9951 1.1538 
325 82.507 84.815 17.579 40.149 60.605 8.8186 
326 38.797 66.277 32.675 13.146 25.806 12.045 
327 66.086 86.828 48.508 36.045 60.591 33.233 
328 0.0000 0.0000 88.968 24.986 7.5991 132.27 
329 30.125 57.327 12.958 7.4105 16.435 4.1428 
330 61.264 0.0000 43.274 13.037 6.5817 17.345 
331 85.243 49.911 88.324 51.220 29.981 125.31 
332 63.651 44.363 42.580 16.537 13.481 17.870 
333 13.066 49.050 0.0000 4.3787 10.049 2.8994 
334 61.358 41.979 89.983 36.863 18.008 136.87 
335 0.0000 42.412 64.591 13.296 9.3491 58.356 
336 62.252 44.000 0.0000 12.833 12.051 1.6854 
337 12.308 100.00 100.00 58.940 85.166 178.08 
338 73.231 86.634 87.339 58.944 63.954 137.62 
339 66.842 14.120 41.667 15.527 7.9168 15.258 
340 87.602 49.315 0.0000 29.717 22.904 0.88008 
341 14.359 14.910 38.364 3.0547 1.7323 12.579 
342 39.463 43.174 27.875 6.1287 8.3048 5.8890 
343 15.038 58.854 84.779 28.623 23.965 120.86 
344 16.321 65.564 57.352 16.647 25.987 44.362 
345 11.684 27.637 87.875 24.740 7.8439 129.97 
346 32.976 11.425 79.662 19.939 6.6657 98.073 
347 87.391 27.974 91.973 52.607 21.513 144.02 
348 87.700 12.565 22.297 26.424 13.739 0.76663 
349 75.652 15.745 12.400 17.259 9.3553 0.22685 
350 45.784 91.194 15.342 26.523 61.406 11.935 
351 85.616 81.955 84.517 62.676 63.023 123.91 
352 68.914 66.736 69.796 36.140 34.810 76.306 
353 50.580 13.330 13.168 6.0619 3.7524 1.0101 
354 100.00 65.344 0.0000 44.734 41.432 3.1761 
355 85.236 68.310 56.605 41.018 40.402 41.453 
356 0.0000 70.154 43.887 14.527 29.658 23.906 
357 8.8704 10.826 20.291 1.1020 1.2665 2.0017 
358 33.792 45.362 86.676 26.219 15.985 116.16 
359 86.950 24.708 17.128 25.523 13.707 -0.057908 
360 49.870 40.050 11.141 7.4384 7.9490 1.7907 
361 37.970 53.234 0.0000 7.4628 14.031 3.2860 
362 86.780 76.613 100.00 71.073 59.341 180.41 
363 44.081 86.600 58.964 31.633 56.569 55.037 
364 37.430 13.704 51.309 8.0686 3.6004 29.508 
365 67.541 87.695 65.666 44.143 63.784 70.501 
366 26.812 54.238 53.736 12.223 15.666 36.610 
367 18.404 51.547 34.272 6.4204 12.114 10.851 
368 53.134 62.277 87.555 37.962 30.869 132.44 
369 64.284 79.239 84.683 48.355 52.987 124.58 
370 13.229 22.228 0.0000 0.98384 1.3484 1.1531 
371 44.638 38.295 72.054 19.789 10.259 78.738 
372 88.581 41.336 76.015 44.915 23.200 89.011 
373 47.936 73.793 61.516 26.675 38.689 57.124 
374 91.563 59.878 27.023 36.488 32.475 5.8415 
375 42.823 79.534 37.873 21.021 44.093 18.324 
376 46.953 15.025 23.601 5.3653 3.2718 2.8950 
377 30.550 29.820 67.782 14.038 6.0219 65.637 
378 89.535 84.787 72.979 59.742 63.916 89.964 
379 87.661 33.797 52.807 32.988 17.402 31.253 
380 47.789 70.864 14.405 16.037 32.369 5.9744 
381 60.528 18.196 75.086 25.355 9.5470 86.668 
382 93.131 12.168 74.845 46.139 19.908 84.685 
383 61.377 45.634 100.00 45.169 20.686 178.28 
384 26.537 60.250 0.0000 8.0617 19.007 4.4098 
385 90.859 33.324 23.960 28.977 16.686 1.6344 
386 28.673 29.593 35.912 3.7326 3.0361 10.503 
387 52.668 13.136 58.645 14.286 6.2534 42.547 
388 11.999 13.366 79.214 18.917 5.7086 99.774 
389 26.536 41.073 100.00 34.678 15.648 171.83 
390 56.977 69.943 100.00 49.802 42.647 171.14 
391 13.126 11.735 100.00 32.680 10.502 172.62 
392 51.643 100.00 85.500 55.898 83.382 131.49 
393 53.388 100.00 13.698 34.918 78.099 14.513 
394 29.105 84.570 60.605 28.364 52.528 57.532 
395 34.048 49.108 46.295 9.5711 11.828 23.732 
396 0.0000 52.827 88.818 28.796 20.291 129.35 
397 70.149 14.577 29.504 15.257 8.0748 4.9242 
398 36.403 68.651 73.121 26.545 32.066 82.203 
399 29.143 100.00 42.740 32.221 76.538 30.188 
400 51.319 35.519 45.793 11.021 7.4958 21.613 
401 27.057 32.120 86.530 24.490 9.4090 123.01 
402 59.262 28.988 86.844 32.640 12.523 126.54 
403 14.923 31.785 75.040 16.545 7.4275 82.199 
404 10.143 74.057 89.642 37.824 39.620 142.21 
405 30.561 45.554 13.575 4.4749 8.5108 2.6446 
406 8.0083 62.222 75.861 24.303 25.202 91.879 
407 74.656 36.443 16.206 18.261 12.226 1.0516 
408 86.644 53.717 59.630 38.335 28.138 45.738 
409 55.452 49.877 67.673 23.287 17.256 68.046 
410 89.467 56.706 77.742 50.405 34.435 94.514 
411 69.500 49.601 86.098 40.181 22.700 125.06 
412 10.943 90.213 0.0000 22.105 58.784 10.330 
413 55.108 57.247 45.768 17.164 20.691 24.110 
