CTI3   

DESCRIPTOR "Argyll Calibration Target chart information 3"
ORIGINATOR "Argyll dispread"
CREATED "Mon Dec  5 18:54:18 2011"
KEYWORD "DEVICE_CLASS"
DEVICE_CLASS "DISPLAY"
KEYWORD "COLOR_REP"
COLOR_REP "RGB_XYZ"
KEYWORD "TARGET_INSTRUMENT"
TARGET_INSTRUMENT "Hughski ColorHug"
KEYWORD "INSTRUMENT_TYPE_SPECTRAL"
INSTRUMENT_TYPE_SPECTRAL "NO"
KEYWORD "LUMINANCE_XYZ_CDM2"
LUMINANCE_XYZ_CDM2 "58.593750 37.307739 38.223267"
KEYWORD "NORMALIZED_TO_Y_100"
NORMALIZED_TO_Y_100 "YES"

NUMBER_OF_FIELDS 7
BEGIN_DATA_FORMAT
SAMPLE_ID RGB_R RGB_G RGB_B XYZ_X XYZ_Y XYZ_Z 
END_DATA_FORMAT

NUMBER_OF_SETS 836
BEGIN_DATA
1 100.00 100.00 100.00 157.06 100.00 102.45 
2 100.00 100.00 100.00 168.71 104.91 107.98 
3 100.00 100.00 100.00 166.87 103.68 106.75 
4 100.00 100.00 100.00 164.42 102.45 107.36 
5 33.330 32.622 30.968 14.110 8.5890 7.9755 
6 100.00 0.0000 100.00 103.07 27.607 76.074 
7 100.00 100.00 0.0000 161.35 84.049 44.785 
8 0.0000 100.00 100.00 55.215 92.025 93.252 
9 0.0000 100.00 0.0000 52.147 71.779 28.834 
10 0.0000 0.0000 100.00 3.0675 18.405 63.190 
11 100.00 0.0000 0.0000 103.07 9.2025 13.497 
12 0.0000 0.0000 0.0000 0.61350 0.61350 0.0000 
13 0.0000 52.455 100.00 14.724 34.969 69.939 
14 100.00 0.0000 50.300 103.07 13.497 25.767 
15 100.00 54.739 100.00 120.25 46.626 82.209 
16 100.00 52.128 0.0000 116.56 25.767 19.632 
17 0.0000 0.0000 46.181 1.2270 3.0675 9.8160 
18 0.0000 51.141 0.0000 11.656 15.951 6.7485 
19 0.0000 100.00 51.348 53.374 78.528 42.945 
20 100.00 100.00 52.037 164.42 88.957 57.669 
21 49.216 0.0000 0.0000 19.632 1.8405 2.4540 
22 56.159 100.00 0.0000 79.755 76.687 33.742 
23 49.226 100.00 100.00 76.074 93.865 95.706 
24 44.487 0.0000 100.00 18.405 20.245 65.644 
25 100.00 44.498 52.029 114.11 24.540 31.902 
26 48.926 48.544 100.00 33.742 33.742 71.779 
27 51.368 100.00 47.250 77.301 78.528 43.558 
28 49.893 0.0000 49.033 22.086 6.1350 14.724 
29 53.109 51.372 0.0000 36.196 18.405 9.8160 
30 0.0000 58.587 53.943 16.564 25.767 22.699 
31 100.00 28.065 100.00 110.43 32.515 76.687 
32 0.0000 0.0000 72.874 1.2270 8.5890 28.221 
33 0.0000 26.758 100.00 5.5215 22.699 63.190 
34 0.0000 25.426 0.0000 3.6810 4.2945 1.8405 
35 72.508 0.0000 100.00 50.307 23.313 68.098 
36 100.00 27.395 0.0000 106.13 14.110 15.337 
37 74.470 100.00 100.00 108.59 97.546 99.387 
38 100.00 0.0000 25.728 102.45 11.043 16.564 
39 73.862 0.0000 0.0000 50.307 4.9080 6.7485 
40 100.00 100.00 25.402 165.03 84.049 47.239 
41 0.0000 75.751 100.00 30.675 55.215 77.914 
42 0.0000 75.172 0.0000 28.221 36.196 15.337 
43 0.0000 100.00 25.864 53.988 73.006 32.515 
44 100.00 0.0000 74.801 104.91 18.405 43.558 
45 0.0000 100.00 75.421 55.828 82.209 60.736 
46 24.577 0.0000 0.0000 5.5215 0.61350 0.61350 
47 26.321 100.00 0.0000 60.123 74.233 30.061 
48 100.00 75.835 0.0000 137.42 47.853 28.834 
49 100.00 100.00 77.061 166.26 93.865 76.074 
50 71.263 100.00 0.0000 102.45 78.528 36.196 
51 0.0000 0.0000 15.614 0.61350 0.61350 1.2270 
52 0.0000 30.049 70.936 4.9080 13.497 28.834 
53 100.00 77.691 100.00 137.42 68.098 92.638 
54 24.486 100.00 100.00 60.123 92.025 93.252 
55 100.00 62.784 31.909 123.93 34.969 28.221 
56 29.552 0.0000 100.00 9.2025 18.405 63.804 
57 32.980 70.921 100.00 35.583 50.307 77.301 
58 0.0000 27.681 40.241 4.2945 6.7485 9.8160 
59 67.901 71.021 100.00 68.712 53.988 80.368 
60 28.154 100.00 67.829 61.350 80.368 53.988 
61 71.637 100.00 70.001 104.91 85.276 61.963 
62 58.822 58.763 53.586 47.239 28.221 26.994 
63 33.466 30.480 0.0000 13.497 6.7485 3.6810 
64 100.00 73.795 71.277 134.97 53.374 55.215 
65 68.394 29.692 0.0000 46.012 9.2025 7.9755 
66 70.399 0.0000 29.039 45.399 6.1350 9.8160 
67 28.078 0.0000 26.956 6.7485 1.8405 4.9080 
68 28.532 72.339 0.0000 31.902 34.356 14.724 
69 100.00 30.941 26.496 106.75 15.951 19.018 
70 34.597 0.0000 73.611 11.043 9.8160 30.675 
71 71.573 0.0000 72.408 47.239 12.883 34.356 
72 0.0000 71.029 29.412 25.153 33.129 17.178 
73 68.386 75.008 0.0000 71.166 40.491 20.859 
74 68.088 27.309 100.00 47.853 26.380 69.325 
75 100.00 26.457 73.749 108.59 22.086 44.172 
76 74.344 100.00 27.392 108.59 79.755 39.877 
77 27.558 100.00 28.197 60.123 74.847 34.356 
78 31.196 27.465 100.00 13.497 23.926 63.804 
79 0.0000 75.521 72.824 29.448 46.012 44.172 
80 0.0000 50.930 25.553 12.270 17.178 9.8160 
81 32.060 33.584 64.033 14.110 14.110 25.153 
82 81.666 55.380 0.0000 77.914 24.540 15.951 
83 68.257 32.751 58.286 46.626 15.337 25.767 
84 0.0000 55.248 81.585 15.337 29.448 45.399 
85 73.781 52.099 100.00 65.031 38.650 76.074 
86 100.00 50.537 82.952 117.79 36.196 58.896 
87 23.550 0.0000 50.439 5.5215 4.9080 13.497 
88 31.335 62.746 31.114 26.994 25.767 15.951 
89 100.00 18.310 49.418 106.75 14.724 26.380 
90 26.498 48.404 0.0000 17.178 14.110 6.7485 
91 47.910 100.00 85.744 75.460 87.730 73.620 
92 71.829 47.313 31.811 58.282 19.632 15.951 
93 31.304 64.132 69.316 29.448 34.356 36.810 
94 80.403 0.0000 54.321 61.350 10.429 22.699 
95 18.455 50.036 100.00 15.951 33.742 68.712 
96 50.653 100.00 16.345 75.460 75.460 33.742 
97 80.121 100.00 52.261 117.79 82.822 52.147 
98 0.0000 22.540 19.289 3.0675 3.6810 3.6810 
99 100.00 75.273 46.886 135.58 49.080 39.877 
100 0.0000 78.618 56.625 31.902 44.785 33.129 
101 51.137 80.627 100.00 57.669 63.190 82.822 
102 48.446 0.0000 17.864 20.859 3.0675 4.2945 
103 100.00 50.023 21.211 117.18 25.153 21.472 
104 50.115 20.118 0.0000 23.926 4.9080 4.2945 
105 58.099 72.426 33.158 55.828 38.037 22.699 
106 19.364 100.00 50.197 57.669 77.301 42.331 
107 50.683 19.177 100.00 25.767 22.699 65.031 
108 53.370 0.0000 81.576 25.767 14.110 40.491 
109 47.768 76.245 0.0000 47.853 40.491 18.405 
110 0.0000 18.927 55.503 2.4540 7.3620 16.564 
111 0.0000 13.277 0.0000 1.2270 1.8405 0.61350 
112 72.862 72.473 75.625 75.460 47.239 52.147 
113 100.00 13.904 0.0000 103.68 11.043 14.110 
114 86.349 0.0000 100.00 74.847 24.540 71.779 
115 100.00 41.941 100.00 114.11 38.037 79.755 
116 100.00 81.785 16.464 143.56 54.601 33.129 
117 0.0000 44.063 52.596 9.8160 15.951 18.405 
118 0.0000 0.0000 58.917 1.2270 5.5215 17.178 
119 59.250 24.551 29.789 33.742 7.3620 9.8160 
120 82.730 82.874 100.00 105.52 71.779 88.344 
121 80.039 0.0000 12.618 61.350 6.1350 9.2025 
122 60.957 47.729 77.817 44.785 26.994 42.945 
123 100.00 0.0000 38.618 103.68 11.656 20.245 
124 0.0000 40.090 100.00 9.8160 27.607 65.644 
125 0.0000 15.283 82.322 3.0675 12.883 38.650 
126 17.592 81.726 100.00 38.650 63.804 80.982 
127 100.00 14.130 100.00 104.91 29.448 76.074 
128 15.261 100.00 82.059 56.442 84.663 68.712 
129 47.770 79.418 60.389 51.534 49.080 38.650 
130 18.768 16.429 0.0000 4.9080 2.4540 1.2270 
131 55.634 100.00 65.763 82.209 81.595 56.442 
132 100.00 100.00 38.541 165.64 84.663 50.920 
133 17.421 0.0000 83.497 4.2945 12.270 39.264 
134 17.237 16.758 100.00 6.1350 20.245 62.577 
135 0.0000 15.067 30.039 1.8405 3.0675 4.9080 
136 0.0000 0.0000 86.505 2.4540 12.883 42.331 
137 75.736 72.799 50.020 80.982 43.558 33.129 
138 100.00 83.323 85.529 146.01 69.939 74.847 
139 100.00 100.00 64.894 165.64 90.184 65.644 
140 81.980 84.914 0.0000 103.07 55.828 28.834 
141 0.0000 63.757 15.490 19.632 25.767 12.270 
142 49.514 66.135 100.00 44.172 47.853 76.074 
143 100.00 0.0000 61.862 103.07 15.951 33.129 
144 24.308 45.410 49.831 14.724 16.564 17.791 
145 15.963 0.0000 17.047 2.4540 1.2270 2.4540 
146 87.497 100.00 100.00 134.97 96.933 101.84 
147 52.099 25.003 75.752 27.607 15.337 35.583 
148 14.909 81.162 0.0000 36.196 43.558 18.405 
149 0.0000 34.792 14.626 6.1350 7.3620 4.9080 
150 48.390 45.075 22.552 30.061 14.724 10.429 
151 83.545 65.965 100.00 91.411 52.761 80.982 
152 16.226 62.345 0.0000 20.859 24.540 10.429 
153 63.222 0.0000 14.914 35.583 4.2945 6.1350 
154 80.449 13.446 0.0000 61.963 7.3620 8.5890 
155 83.917 41.562 0.0000 75.460 16.564 13.497 
156 100.00 60.448 46.300 122.09 35.583 33.742 
157 15.584 0.0000 34.795 2.4540 2.4540 6.1350 
158 17.144 65.121 100.00 25.153 44.785 74.233 
159 83.602 55.334 62.667 83.436 30.675 36.810 
160 0.0000 82.190 14.220 34.969 45.399 19.632 
161 25.132 74.856 50.616 33.742 39.877 28.834 
162 0.0000 13.769 100.00 3.6810 19.018 61.963 
163 87.181 0.0000 0.0000 74.847 7.3620 9.8160 
164 0.0000 100.00 39.190 54.601 76.074 36.810 
165 78.047 65.914 19.865 79.141 33.742 20.245 
166 100.00 63.961 15.865 125.15 36.196 25.153 
167 100.00 45.955 36.032 113.50 23.926 25.153 
168 15.926 100.00 16.890 55.828 74.233 31.288 
169 41.459 100.00 0.0000 68.098 74.847 31.902 
170 48.707 37.288 48.139 26.994 13.497 17.178 
171 83.381 100.00 13.285 125.15 79.141 40.491 
172 78.129 25.303 75.621 61.350 18.405 40.491 
173 12.396 0.0000 0.0000 2.4540 0.61350 0.61350 
174 37.607 48.336 83.346 23.926 26.380 47.239 
175 35.588 15.356 0.0000 11.656 3.0675 2.4540 
176 61.245 100.00 100.00 90.798 94.479 95.092 
177 100.00 67.290 87.195 131.29 51.534 68.712 
178 0.0000 0.0000 30.615 0.61350 1.8405 4.9080 
179 35.187 81.789 83.323 46.012 58.282 58.282 
180 39.525 80.194 22.879 46.012 45.399 22.086 
181 50.634 34.593 0.0000 27.607 9.2025 6.1350 
182 14.175 100.00 63.146 56.442 79.755 50.920 
183 83.493 17.728 34.574 68.098 9.8160 15.337 
184 23.463 22.014 79.943 8.5890 14.110 37.423 
185 18.066 31.847 0.0000 7.3620 6.7485 3.0675 
186 87.201 100.00 81.361 133.13 91.411 77.914 
187 0.0000 100.00 87.950 55.215 86.503 75.460 
188 34.476 17.888 46.220 11.656 6.1350 12.270 
189 18.277 0.0000 67.390 4.2945 7.3620 24.540 
190 100.00 87.972 0.0000 150.92 63.190 36.196 
191 82.925 34.850 100.00 74.847 31.288 73.006 
192 0.0000 88.016 100.00 43.558 71.779 82.822 
193 36.104 85.655 100.00 50.920 69.325 82.822 
194 60.981 0.0000 0.0000 33.742 3.6810 4.2945 
195 51.466 61.826 78.106 42.331 36.196 46.012 
196 78.427 31.983 22.175 62.577 12.270 12.270 
197 66.017 44.321 0.0000 48.466 15.337 9.8160 
198 83.941 0.0000 84.177 68.098 18.405 49.080 
199 20.158 46.612 23.269 13.497 14.110 8.5890 
200 0.0000 100.00 62.618 53.988 79.755 50.307 
201 33.832 0.0000 13.933 9.2025 1.8405 2.4540 
202 100.00 17.286 16.322 104.29 11.656 15.951 
203 0.0000 42.204 83.926 9.8160 22.699 44.172 
204 0.0000 87.774 0.0000 40.491 52.147 22.086 
205 64.988 0.0000 59.017 39.264 8.5890 23.313 
206 14.677 0.0000 100.00 4.2945 18.405 61.963 
207 88.934 82.673 35.021 116.56 55.215 34.969 
208 0.0000 63.778 100.00 22.699 43.558 71.779 
209 83.429 17.674 100.00 71.166 26.380 67.485 
210 30.899 100.00 85.668 62.577 84.663 69.939 
211 83.680 0.0000 41.016 65.031 9.2025 15.951 
212 100.00 63.515 0.0000 119.02 33.742 22.699 
213 85.074 69.987 0.0000 90.184 36.196 21.472 
214 20.801 45.524 69.018 12.883 19.018 29.448 
215 21.382 82.482 73.017 36.810 52.761 45.399 
216 100.00 15.128 64.249 98.160 16.564 33.742 
217 36.522 0.0000 58.427 11.043 6.1350 17.791 
218 22.466 81.296 33.007 35.583 44.172 22.699 
219 62.531 87.152 0.0000 70.552 52.761 25.153 
220 84.120 85.397 67.886 103.07 60.123 50.920 
221 18.870 27.336 45.389 6.1350 7.3620 12.270 
222 66.439 100.00 14.444 90.798 74.233 34.356 
223 41.636 22.147 19.003 15.951 4.9080 4.9080 
224 61.271 100.00 81.940 84.663 84.049 67.485 
225 86.013 100.00 0.0000 124.54 77.301 36.810 
226 37.570 0.0000 0.0000 11.043 1.8405 1.8405 
227 100.00 16.132 84.102 100.61 22.086 50.920 
228 0.0000 100.00 13.619 50.920 71.166 29.448 
229 38.905 100.00 56.471 63.190 76.687 44.785 
230 100.00 15.382 34.563 97.546 12.883 18.405 
231 36.656 14.908 100.00 13.497 20.245 60.736 
232 0.0000 62.593 66.608 18.405 30.061 31.902 
233 66.347 12.528 100.00 39.264 22.086 65.031 
234 100.00 43.375 69.233 105.52 26.994 41.718 
235 100.00 56.360 61.236 112.88 32.515 38.650 
236 0.0000 86.194 44.955 36.196 49.693 28.834 
237 64.527 87.262 100.00 74.847 70.552 84.663 
238 34.411 0.0000 42.471 9.8160 3.6810 9.2025 
239 80.230 59.707 85.120 75.460 38.037 55.215 
240 20.625 19.056 14.791 4.9080 3.0675 3.0675 
241 15.341 34.221 100.00 9.2025 23.926 61.963 
242 36.777 0.0000 87.905 12.270 14.110 43.558 
243 34.598 56.247 100.00 25.767 36.810 67.485 
244 20.860 67.629 17.418 24.540 28.834 13.497 
245 44.958 60.843 18.054 32.515 23.926 12.270 
246 37.421 60.193 0.0000 26.380 22.699 10.429 
247 84.011 33.849 42.612 68.098 15.337 19.632 
248 17.241 60.339 37.743 19.018 23.313 15.951 
249 50.650 17.261 53.278 22.699 7.9755 17.178 
250 45.505 48.926 65.152 27.607 21.472 29.448 
251 44.567 84.081 39.649 50.307 49.080 28.221 
252 100.00 86.339 72.054 141.10 66.258 59.509 
253 68.140 61.135 0.0000 56.442 25.767 14.110 
254 17.930 66.986 81.403 24.540 37.423 46.626 
255 39.242 60.215 48.926 28.834 26.380 21.472 
256 20.099 18.770 62.967 5.5215 8.5890 20.859 
257 34.553 100.00 14.582 60.123 71.779 30.061 
258 87.345 0.0000 66.694 70.552 13.497 31.288 
259 0.0000 43.714 39.842 8.5890 12.883 11.656 
260 100.00 37.705 13.955 102.45 17.791 16.564 
261 31.265 86.993 0.0000 43.558 50.307 20.859 
262 51.402 82.661 81.338 54.601 55.215 56.442 
263 100.00 100.00 12.984 158.28 79.755 42.945 
264 0.0000 37.859 0.0000 6.7485 7.9755 3.0675 
265 62.092 58.215 100.00 50.307 40.491 72.393 
266 86.186 100.00 64.100 125.15 83.436 57.669 
267 100.00 35.251 85.898 107.36 28.834 56.442 
268 63.182 89.992 41.974 76.687 62.577 35.583 
269 13.504 100.00 0.0000 54.601 73.006 28.834 
270 100.00 0.0000 13.228 100.61 9.8160 14.110 
271 63.881 40.826 100.00 44.785 31.902 71.779 
272 69.387 84.838 20.792 79.755 53.374 28.221 
273 0.0000 70.279 45.136 23.926 33.742 22.699 
274 79.094 64.754 40.908 79.141 33.129 26.380 
275 62.385 54.099 17.396 47.239 20.859 13.497 
276 64.408 14.621 0.0000 37.423 4.9080 5.5215 
277 70.028 15.606 44.651 45.399 9.2025 15.951 
278 0.0000 63.544 0.0000 19.018 25.153 10.429 
279 83.475 47.274 20.502 76.074 20.245 15.951 
280 55.866 0.0000 32.671 27.607 4.2945 8.5890 
281 58.007 0.0000 100.00 30.675 21.472 66.871 
282 100.00 0.0000 87.698 101.84 22.699 58.282 
283 0.0000 13.792 67.215 1.8405 7.9755 24.540 
284 84.123 17.001 58.549 68.712 13.497 26.380 
285 59.579 32.873 15.966 35.583 9.2025 7.9755 
286 10.410 32.998 28.659 6.1350 7.9755 6.7485 
287 17.231 40.031 85.650 11.043 22.086 46.626 
288 37.568 41.561 10.108 19.018 11.043 6.7485 
289 0.0000 69.015 85.092 24.540 42.331 52.761 
290 14.442 100.00 36.187 55.215 74.847 34.969 
291 100.00 40.549 0.0000 109.82 19.018 17.178 
292 82.143 45.435 78.429 74.233 28.221 46.626 
293 52.674 0.0000 67.300 24.540 9.2025 26.380 
294 0.0000 87.868 66.793 39.877 59.509 44.172 
295 86.530 100.00 40.524 127.61 82.822 46.626 
296 71.777 85.586 67.232 84.049 61.350 50.307 
297 43.216 100.00 31.671 67.485 75.460 36.196 
298 39.245 32.908 85.845 18.405 20.245 46.626 
299 0.0000 45.662 67.543 10.429 19.018 28.834 
300 12.161 100.00 100.00 55.828 90.184 92.025 
301 67.049 0.0000 85.516 41.104 15.951 47.239 
302 100.00 89.041 100.00 150.31 80.982 97.546 
303 20.246 60.698 56.526 21.472 26.994 25.767 
304 52.177 55.457 40.416 37.423 22.699 18.405 
305 72.617 87.018 83.932 88.957 67.485 65.644 
306 40.512 16.723 66.475 15.951 9.8160 25.767 
307 68.507 49.232 50.605 53.374 22.086 23.926 
308 65.622 100.00 54.525 92.638 80.982 48.466 
309 54.115 37.240 66.394 31.902 17.178 29.448 
310 100.00 76.138 31.267 132.52 48.466 33.742 
311 54.728 65.623 0.0000 45.399 28.834 14.110 
312 63.126 12.526 64.370 35.583 11.043 26.380 
313 72.827 18.080 23.704 48.466 7.9755 9.8160 
314 23.268 15.278 34.947 5.5215 4.2945 7.3620 
315 87.648 68.954 59.645 97.546 41.104 39.877 
316 0.0000 85.595 85.198 38.650 61.350 61.963 
317 35.798 84.371 69.210 46.626 55.215 46.012 
318 36.062 47.494 35.919 21.472 15.951 12.883 
319 86.083 36.277 59.152 77.301 19.632 29.448 
320 58.210 100.00 30.361 83.436 76.074 37.423 
321 46.745 14.614 32.317 19.632 4.9080 7.3620 
322 81.573 73.869 86.954 91.411 54.601 64.417 
323 85.991 49.387 48.206 82.822 24.540 26.380 
324 28.062 87.906 19.654 46.012 53.988 23.926 
325 68.992 17.993 85.124 45.399 18.405 46.626 
326 100.00 66.147 100.00 125.15 55.828 85.890 
327 33.358 64.806 84.517 29.448 38.650 52.761 
328 41.351 17.736 80.522 16.564 14.110 39.264 
329 100.00 100.00 88.719 161.35 95.706 90.184 
330 66.336 0.0000 44.320 38.037 7.3620 14.724 
331 64.850 67.090 12.293 58.282 31.288 17.178 
332 15.262 31.268 63.277 7.3620 12.270 22.699 
333 15.008 43.663 37.300 11.043 12.883 11.656 
334 0.0000 57.895 38.078 15.951 22.086 14.724 
335 66.599 58.458 67.871 56.442 31.288 37.423 
336 59.191 18.651 15.215 31.902 5.5215 6.1350 
337 66.781 31.140 84.629 44.785 21.472 47.239 
338 88.033 85.158 52.140 115.34 60.736 42.945 
339 36.882 100.00 100.00 65.644 92.025 91.411 
340 26.102 33.094 17.006 10.429 7.3620 4.9080 
341 56.309 36.861 35.862 33.742 12.270 12.883 
342 45.839 65.587 67.033 38.037 34.969 36.810 
343 83.709 81.172 16.406 99.387 50.920 27.607 
344 0.0000 48.132 13.005 10.429 14.110 6.7485 
345 87.176 50.021 100.00 85.890 39.877 77.914 
346 51.219 84.244 13.730 57.055 49.693 23.313 
347 60.606 71.415 48.406 56.442 38.037 28.834 
348 0.0000 11.359 12.718 1.8405 1.2270 1.8405 
349 86.429 49.705 33.145 83.436 22.699 20.245 
350 34.056 40.958 100.00 19.018 28.834 66.871 
351 100.00 30.557 59.628 106.75 20.245 33.129 
352 88.497 26.902 13.449 79.141 11.043 12.270 
353 14.167 51.980 88.218 15.951 29.448 51.534 
354 13.784 12.983 49.370 3.0675 5.5215 12.270 
355 15.018 88.441 48.062 42.331 57.055 33.129 
356 87.790 25.769 89.215 78.528 24.540 57.055 
357 0.0000 33.206 55.865 5.5215 11.656 18.405 
358 74.324 76.029 35.536 78.528 44.172 28.221 
359 65.863 57.223 42.324 52.761 26.380 21.472 
360 30.893 54.646 13.136 21.472 19.018 9.2025 
361 0.0000 34.360 28.321 5.5215 7.9755 6.7485 
362 15.443 77.087 85.116 33.129 50.920 57.055 
363 63.381 68.947 68.521 58.282 40.491 41.718 
364 69.733 27.566 42.917 47.239 11.043 16.564 
365 32.754 100.00 42.760 61.963 74.233 38.650 
366 47.096 29.481 34.829 22.699 8.5890 10.429 
367 8.5451 71.948 62.695 26.994 38.650 33.742 
368 0.0000 86.048 29.300 38.037 51.534 23.926 
369 53.697 51.572 85.367 38.650 30.675 50.307 
370 17.608 56.690 12.515 17.178 20.245 9.2025 
371 90.638 14.414 49.227 81.595 12.883 22.699 
372 63.248 63.640 89.550 55.215 42.331 61.350 
373 100.00 85.976 58.455 144.17 65.644 51.534 
374 9.8311 28.027 7.5567 4.9080 4.9080 2.4540 
375 89.831 64.313 69.506 98.160 41.104 46.012 
376 31.754 12.995 25.543 9.2025 3.0675 4.9080 
377 75.914 45.966 64.957 61.963 23.926 34.356 
378 7.5735 50.695 58.941 12.883 20.245 23.926 
379 100.00 69.835 58.912 128.22 44.785 44.172 
380 32.211 34.376 48.339 14.724 11.043 15.337 
381 13.901 12.159 73.555 4.2945 9.8160 30.061 
382 87.071 9.0280 77.653 74.233 17.791 42.331 
383 23.272 85.409 84.290 42.945 61.350 60.736 
384 93.289 39.480 26.145 93.865 18.405 17.791 
385 65.769 59.630 30.967 55.828 26.994 18.405 
386 100.00 32.265 41.803 107.98 18.405 23.926 
387 86.568 85.281 86.961 114.11 69.939 73.006 
388 52.577 86.830 30.016 61.963 55.215 28.221 
389 47.921 40.199 76.902 27.607 21.472 38.650 
390 22.360 86.619 61.580 42.331 57.669 41.104 
391 52.232 33.601 88.787 29.448 22.699 52.147 
392 0.0000 28.523 86.267 4.9080 17.791 44.785 
393 43.497 67.879 39.551 37.423 33.129 21.472 
394 39.877 45.261 0.0000 22.699 13.497 6.7485 
395 86.940 12.430 24.699 73.620 8.5890 13.497 
396 28.363 55.339 90.398 22.699 33.129 56.442 
397 39.018 70.534 57.879 37.423 37.423 31.902 
398 12.833 28.519 78.828 6.7485 15.337 36.196 
399 68.350 31.815 69.975 47.239 17.791 33.742 
400 56.520 26.226 41.626 31.288 9.2025 13.497 
401 12.938 46.218 0.0000 11.043 12.883 5.5215 
402 8.6938 60.179 26.117 18.405 23.313 12.270 
403 51.995 89.429 96.608 66.258 74.847 81.595 
404 46.905 47.746 48.909 29.448 19.018 19.632 
405 14.352 81.814 19.479 35.583 45.399 20.245 
406 71.482 38.117 12.273 52.147 13.497 10.429 
407 86.616 60.785 10.012 89.571 29.448 19.632 
408 71.811 88.979 52.186 88.344 63.190 41.718 
409 43.213 100.00 72.083 69.325 82.209 59.509 
410 73.920 23.444 8.2853 52.147 7.9755 8.5890 
411 40.629 85.534 53.423 51.534 53.988 36.196 
412 38.955 52.128 22.885 25.153 17.791 11.043 
413 46.480 12.229 8.6707 19.018 3.0675 3.6810 
414 40.855 33.301 22.309 19.018 8.5890 7.3620 
