CTI3   

DESCRIPTOR "Argyll Calibration Target chart information 3"
ORIGINATOR "Argyll dispread"
CREATED "Tue Jan 10 16:05:54 2012"
KEYWORD "DEVICE_CLASS"
DEVICE_CLASS "DISPLAY"
KEYWORD "COLOR_REP"
COLOR_REP "RGB_XYZ"
KEYWORD "TARGET_INSTRUMENT"
TARGET_INSTRUMENT "Hughski ColorHug"
KEYWORD "INSTRUMENT_TYPE_SPECTRAL"
INSTRUMENT_TYPE_SPECTRAL "NO"
KEYWORD "LUMINANCE_XYZ_CDM2"
LUMINANCE_XYZ_CDM2 "157.288803 165.864655 160.080048"
KEYWORD "NORMALIZED_TO_Y_100"
NORMALIZED_TO_Y_100 "YES"

NUMBER_OF_FIELDS 7
BEGIN_DATA_FORMAT
SAMPLE_ID RGB_R RGB_G RGB_B XYZ_X XYZ_Y XYZ_Z 
END_DATA_FORMAT

NUMBER_OF_SETS 836
BEGIN_DATA
1 100.00 100.00 100.00 94.830 100.00 96.512 
2 100.00 100.00 100.00 95.033 100.08 96.427 
3 100.00 100.00 100.00 94.830 100.00 96.512 
4 100.00 100.00 100.00 95.033 100.08 96.427 
5 33.330 32.622 30.968 12.805 12.199 17.853 
6 100.00 0.0000 100.00 65.362 38.454 89.402 
7 100.00 100.00 0.0000 69.974 83.906 9.4327 
8 0.0000 100.00 100.00 55.063 78.068 95.245 
9 0.0000 100.00 0.0000 30.567 62.578 9.1859 
10 0.0000 0.0000 100.00 25.596 16.522 88.134 
11 100.00 0.0000 0.0000 40.916 23.078 2.5421 
12 0.0000 0.0000 0.0000 1.4827 1.4141 2.5003 
13 0.0000 52.455 100.00 33.083 31.359 91.663 
14 100.00 0.0000 50.300 48.534 27.224 29.766 
15 100.00 54.739 100.00 73.516 54.762 92.655 
16 100.00 52.128 0.0000 48.427 37.694 5.4748 
17 0.0000 0.0000 46.181 7.8987 4.6761 26.132 
18 0.0000 51.141 0.0000 8.3802 15.231 5.2987 
19 0.0000 100.00 51.348 38.364 67.025 36.920 
20 100.00 100.00 52.037 78.334 89.037 38.102 
21 49.216 0.0000 0.0000 8.8496 5.3743 3.1162 
22 56.159 100.00 0.0000 40.508 67.688 10.087 
23 49.226 100.00 100.00 62.814 82.410 96.286 
24 44.487 0.0000 100.00 32.274 19.791 90.013 
25 100.00 44.498 52.029 54.814 38.747 34.766 
26 48.926 48.544 100.00 39.987 33.928 92.469 
27 51.368 100.00 47.250 45.907 71.107 34.537 
28 49.893 0.0000 49.033 16.314 9.5538 29.624 
29 53.109 51.372 0.0000 17.355 20.612 6.2173 
30 0.0000 58.587 53.943 18.946 24.479 36.173 
31 100.00 28.065 100.00 68.054 43.740 90.822 
32 0.0000 0.0000 72.874 15.033 9.1461 51.806 
33 0.0000 26.758 100.00 28.058 21.391 89.845 
34 0.0000 25.426 0.0000 3.7650 5.9815 3.7000 
35 72.508 0.0000 100.00 42.675 25.733 90.333 
36 100.00 27.395 0.0000 43.455 28.399 3.2463 
37 74.470 100.00 100.00 73.392 88.097 96.725 
38 100.00 0.0000 25.728 43.498 24.211 12.963 
39 73.862 0.0000 0.0000 19.224 10.980 3.6411 
40 100.00 100.00 25.402 73.016 85.871 19.272 
41 0.0000 75.751 100.00 41.340 48.455 93.705 
42 0.0000 75.172 0.0000 16.817 32.629 7.8513 
43 0.0000 100.00 25.864 33.583 64.207 19.230 
44 100.00 0.0000 74.801 55.285 31.311 55.014 
45 0.0000 100.00 75.421 45.319 71.193 62.083 
46 24.577 0.0000 0.0000 3.8527 2.4832 2.8707 
47 26.321 100.00 0.0000 33.345 63.808 9.3853 
48 100.00 75.835 0.0000 56.661 55.012 8.1130 
49 100.00 100.00 77.061 85.598 93.695 65.086 
50 71.263 100.00 0.0000 47.110 71.442 10.244 
51 0.0000 0.0000 15.614 2.6338 2.1828 6.8927 
52 0.0000 30.049 70.936 17.470 14.615 50.994 
53 100.00 77.691 100.00 82.336 72.543 95.632 
54 24.486 100.00 100.00 57.613 79.439 96.126 
55 100.00 62.784 31.909 55.393 46.723 20.512 
56 29.552 0.0000 100.00 28.910 18.099 89.474 
57 32.980 70.921 100.00 43.573 46.726 94.319 
58 0.0000 27.681 40.241 9.5928 9.1591 23.875 
59 67.901 71.021 100.00 54.331 52.714 95.269 
60 28.154 100.00 67.829 46.178 71.268 53.922 
61 71.637 100.00 70.001 60.429 79.135 56.722 
62 58.822 58.763 53.586 30.060 30.513 37.753 
63 33.466 30.480 0.0000 8.5871 9.6871 4.2170 
64 100.00 73.795 71.277 69.238 61.341 56.263 
65 68.394 29.692 0.0000 19.369 15.453 4.5708 
66 70.399 0.0000 29.039 20.329 11.437 15.461 
67 28.078 0.0000 26.956 7.4556 4.5744 13.255 
68 28.532 72.339 0.0000 18.952 32.165 7.7304 
69 100.00 30.941 26.496 46.983 30.597 15.027 
70 34.597 0.0000 73.611 19.725 11.728 53.738 
71 71.573 0.0000 72.408 31.346 17.593 53.154 
72 0.0000 71.029 29.412 18.422 30.864 19.453 
73 68.386 75.008 0.0000 31.959 40.709 8.9122 
74 68.088 27.309 100.00 43.301 29.323 92.422 
75 100.00 26.457 73.749 57.822 36.074 55.328 
76 74.344 100.00 27.392 52.064 74.201 21.426 
77 27.558 100.00 28.197 36.873 66.006 21.166 
78 31.196 27.465 100.00 32.213 23.625 90.637 
79 0.0000 75.521 72.824 30.804 41.416 57.172 
80 0.0000 50.930 25.553 11.372 17.082 15.939 
81 32.060 33.584 64.033 19.888 16.555 44.327 
82 81.666 55.380 0.0000 32.579 30.260 7.0541 
83 68.257 32.751 58.286 29.366 21.587 39.573 
84 0.0000 55.248 81.585 26.409 27.722 65.409 
85 73.781 52.099 100.00 51.181 40.971 93.434 
86 100.00 50.537 82.952 65.941 47.743 69.303 
87 23.550 0.0000 50.439 11.420 6.5138 30.895 
88 31.335 62.746 31.114 19.374 26.865 20.208 
89 100.00 18.310 49.418 49.587 29.635 30.306 
90 26.498 48.404 0.0000 10.901 15.707 5.9936 
91 47.910 100.00 85.744 56.853 77.551 77.136 
92 71.829 47.313 31.811 28.270 25.055 20.354 
93 31.304 64.132 69.316 29.116 33.181 52.979 
94 80.403 0.0000 54.321 31.612 17.780 34.909 
95 18.455 50.036 100.00 34.432 31.469 92.070 
96 50.653 100.00 16.345 40.053 67.593 14.568 
97 80.121 100.00 52.261 60.618 78.871 39.483 
98 0.0000 22.540 19.289 5.1691 6.0087 9.9331 
99 100.00 75.273 46.886 63.359 58.427 33.772 
100 0.0000 78.618 56.625 27.638 41.693 40.958 
101 51.137 80.627 100.00 52.421 58.660 95.704 
102 48.446 0.0000 17.864 10.511 6.1544 8.8538 
103 100.00 50.023 21.211 49.987 38.245 12.814 
104 50.115 20.118 0.0000 10.923 8.7451 3.6197 
105 58.099 72.426 33.158 30.435 38.408 23.584 
106 19.364 100.00 50.197 40.147 67.632 36.951 
107 50.683 19.177 100.00 35.342 23.784 90.685 
108 53.370 0.0000 81.576 26.973 16.042 63.570 
109 47.768 76.245 0.0000 24.825 37.724 8.3966 
110 0.0000 18.927 55.503 11.508 8.8198 34.571 
111 0.0000 13.277 0.0000 2.0988 2.7710 3.0255 
112 72.862 72.473 75.625 48.210 48.842 62.541 
113 100.00 13.904 0.0000 41.763 24.852 2.7768 
114 86.349 0.0000 100.00 51.699 30.671 90.059 
115 100.00 41.941 100.00 70.567 48.724 91.731 
116 100.00 81.785 16.464 60.991 62.236 13.139 
117 0.0000 44.063 52.596 15.074 17.152 33.293 
118 0.0000 0.0000 58.917 10.737 6.5612 36.057 
119 59.250 24.551 29.789 17.998 13.496 16.840 
120 82.730 82.874 100.00 68.691 69.603 96.299 
121 80.039 0.0000 12.618 23.611 13.253 7.2611 
122 60.957 47.729 77.817 35.444 29.647 62.585 
123 100.00 0.0000 38.618 45.824 25.526 21.152 
124 0.0000 40.090 100.00 30.747 26.119 90.873 
125 0.0000 15.283 82.322 19.357 13.004 64.622 
126 17.592 81.726 100.00 46.024 55.544 95.852 
127 100.00 14.130 100.00 66.335 39.856 90.557 
128 15.261 100.00 82.059 49.023 73.513 70.865 
129 47.770 79.418 60.389 36.413 47.175 45.471 
130 18.768 16.429 0.0000 4.3447 4.7691 2.8666 
131 55.634 100.00 65.763 52.064 74.372 52.429 
132 100.00 100.00 38.541 75.139 87.107 27.547 
133 17.421 0.0000 83.497 20.245 12.281 65.610 
134 17.237 16.758 100.00 28.407 19.762 89.302 
135 0.0000 15.067 30.039 6.1367 4.9810 16.151 
136 0.0000 0.0000 86.505 19.841 12.301 69.290 
137 75.736 72.799 50.020 42.351 45.526 35.944 
138 100.00 83.323 85.529 78.919 74.498 74.851 
139 100.00 100.00 64.894 81.428 90.739 50.259 
140 81.980 84.914 0.0000 44.685 55.841 9.8453 
141 0.0000 63.757 15.490 13.480 23.777 11.565 
142 49.514 66.135 100.00 45.422 44.614 94.508 
143 100.00 0.0000 61.862 51.295 28.658 40.697 
144 24.308 45.410 49.831 17.522 18.672 32.658 
145 15.963 0.0000 17.047 4.1889 2.9313 7.6053 
146 87.497 100.00 100.00 81.804 92.794 96.708 
147 52.099 25.003 75.752 26.852 18.843 57.586 
148 14.909 81.162 0.0000 20.938 39.034 9.0632 
149 0.0000 34.792 14.626 6.7329 9.3681 9.0914 
150 48.390 45.075 22.552 17.047 18.431 13.359 
151 83.545 65.965 100.00 61.608 53.432 94.936 
152 16.226 62.345 0.0000 13.321 23.073 6.9503 
153 63.222 0.0000 14.914 14.971 8.6977 7.9591 
154 80.449 13.446 0.0000 23.843 14.606 4.2435 
155 83.917 41.562 0.0000 30.775 24.251 6.6226 
156 100.00 60.448 46.300 57.511 46.464 31.122 
157 15.584 0.0000 34.795 6.9237 4.0291 18.741 
158 17.144 65.121 100.00 38.690 40.673 93.039 
159 83.602 55.334 62.667 44.386 36.959 45.001 
160 0.0000 82.190 14.220 21.558 40.571 13.097 
161 25.132 74.856 50.616 27.189 38.225 35.870 
162 0.0000 13.769 100.00 26.569 17.924 89.290 
163 87.181 0.0000 0.0000 27.840 15.758 3.5389 
164 0.0000 100.00 39.190 35.858 65.408 28.220 
165 78.047 65.914 19.865 35.357 36.916 14.877 
166 100.00 63.961 15.865 53.144 45.858 11.317 
167 100.00 45.955 36.032 51.747 37.382 22.404 
168 15.926 100.00 16.890 33.247 63.759 14.496 
169 41.459 100.00 0.0000 36.505 65.419 10.010 
170 48.707 37.288 48.139 20.493 17.748 31.208 
171 83.381 100.00 13.285 55.499 75.983 13.941 
172 78.129 25.303 75.621 39.012 25.614 58.533 
173 12.396 0.0000 0.0000 2.2470 1.6202 2.9590 
174 37.607 48.336 83.346 30.454 27.116 69.357 
175 35.588 15.356 0.0000 7.1222 5.9985 3.0660 
176 61.245 100.00 100.00 66.993 84.423 96.482 
177 100.00 67.290 87.195 72.530 59.756 76.125 
178 0.0000 0.0000 30.615 4.9336 3.1618 15.287 
179 35.187 81.789 83.323 42.357 52.617 72.234 
180 39.525 80.194 22.879 27.240 42.282 17.534 
181 50.634 34.593 0.0000 13.179 12.976 5.0244 
182 14.175 100.00 63.146 42.528 69.242 47.848 
183 83.493 17.728 34.574 30.792 19.349 19.662 
184 23.463 22.014 79.943 21.755 15.345 62.060 
185 18.066 31.847 0.0000 6.2171 8.6180 3.8465 
186 87.201 100.00 81.361 74.233 87.269 71.020 
187 0.0000 100.00 87.950 49.795 74.080 78.342 
188 34.476 17.888 46.220 13.694 9.7844 27.804 
189 18.277 0.0000 67.390 14.925 8.5564 46.390 
190 100.00 87.972 0.0000 62.716 68.549 8.3405 
191 82.925 34.850 100.00 53.404 37.009 92.484 
192 0.0000 88.016 100.00 47.728 62.260 95.159 
193 36.104 85.655 100.00 51.595 62.289 95.870 
194 60.981 0.0000 0.0000 13.056 7.7229 3.1079 
195 51.466 61.826 78.106 35.671 35.687 63.291 
196 78.427 31.983 22.175 27.483 20.202 13.259 
197 66.017 44.321 0.0000 21.067 20.117 5.8222 
198 83.941 0.0000 84.177 43.086 24.589 68.513 
199 20.158 46.612 23.269 11.976 15.647 14.510 
200 0.0000 100.00 62.618 40.973 68.494 47.135 
201 33.832 0.0000 13.933 6.4565 4.1492 6.4596 
202 100.00 17.286 16.322 43.654 26.048 8.2240 
203 0.0000 42.204 83.926 24.278 22.184 67.651 
204 0.0000 87.774 0.0000 23.179 46.098 9.5096 
205 64.988 0.0000 59.017 24.171 13.550 38.808 
206 14.677 0.0000 100.00 26.921 16.854 89.137 
207 88.934 82.673 35.021 52.641 57.816 25.999 
208 0.0000 63.778 100.00 36.672 38.533 92.517 
209 83.429 17.674 100.00 50.942 32.139 90.773 
210 30.899 100.00 85.668 52.928 75.733 76.053 
211 83.680 0.0000 41.016 30.660 17.289 23.805 
212 100.00 63.515 0.0000 51.609 44.707 6.4994 
213 85.074 69.987 0.0000 39.670 41.924 8.2034 
214 20.801 45.524 69.018 21.743 21.364 49.803 
215 21.382 82.482 73.017 36.356 49.498 58.567 
216 100.00 15.128 64.249 53.037 31.383 43.092 
217 36.522 0.0000 58.427 15.453 8.9212 37.394 
218 22.466 81.296 33.007 26.126 42.390 23.464 
219 62.531 87.152 0.0000 35.183 52.345 9.3502 
220 84.120 85.397 67.886 58.947 64.421 54.174 
221 18.870 27.336 45.389 12.197 10.825 27.464 
222 66.439 100.00 14.444 46.042 70.549 14.590 
223 41.636 22.147 19.003 10.777 9.1402 9.9220 
224 61.271 100.00 81.940 59.602 79.200 71.304 
225 86.013 100.00 0.0000 56.337 76.460 9.8853 
226 37.570 0.0000 0.0000 6.2493 3.8887 3.0362 
227 100.00 16.132 84.102 59.892 36.258 67.130 
228 0.0000 100.00 13.619 31.563 62.823 12.472 
229 38.905 100.00 56.471 44.996 70.360 43.108 
230 100.00 15.382 34.563 46.262 27.517 18.440 
231 36.656 14.908 100.00 31.541 21.037 90.131 
232 0.0000 62.593 66.608 23.757 29.506 48.204 
233 66.347 12.528 100.00 40.334 25.559 90.148 
234 100.00 43.375 69.233 59.263 41.298 51.229 
235 100.00 56.360 61.236 59.733 46.056 43.249 
236 0.0000 86.194 44.955 29.005 48.339 32.411 
237 64.527 87.262 100.00 60.827 68.423 96.293 
238 34.411 0.0000 42.471 11.415 6.7113 24.268 
239 80.230 59.707 85.120 51.276 43.467 73.124 
240 20.625 19.056 14.791 6.2094 5.6293 8.5187 
241 15.341 34.221 100.00 30.869 24.632 91.012 
242 36.777 0.0000 87.905 25.630 15.356 72.907 
243 34.598 56.247 100.00 38.672 35.829 93.030 
244 20.860 67.629 17.418 17.288 28.199 13.292 
245 44.958 60.843 18.054 19.516 25.353 13.124 
246 37.421 60.193 0.0000 16.069 23.408 6.9638 
247 84.011 33.849 42.612 35.499 24.903 27.058 
248 17.241 60.339 37.743 17.690 24.615 24.029 
249 50.650 17.261 53.278 18.949 12.673 33.790 
250 45.505 48.926 65.152 26.001 24.763 46.267 
251 44.567 84.081 39.649 33.176 49.055 28.317 
252 100.00 86.339 72.054 75.573 74.474 58.126 
253 68.140 61.135 0.0000 26.293 29.607 7.1643 
254 17.930 66.986 81.403 31.966 36.921 67.586 
255 39.242 60.215 48.926 23.738 27.667 33.387 
256 20.099 18.770 62.967 15.287 11.033 41.956 
257 34.553 100.00 14.582 36.254 65.405 14.405 
258 87.345 0.0000 66.694 39.397 22.442 45.881 
259 0.0000 43.714 39.842 12.389 15.232 24.084 
260 100.00 37.705 13.955 46.273 32.378 8.3133 
261 31.265 86.993 0.0000 26.388 47.266 8.9420 
262 51.402 82.661 81.338 45.543 54.943 69.535 
263 100.00 100.00 12.984 70.972 84.709 13.110 
264 0.0000 37.859 0.0000 5.8411 9.9106 4.5944 
265 62.092 58.215 100.00 47.266 41.386 93.914 
266 86.186 100.00 64.100 67.408 82.911 50.286 
267 100.00 35.251 85.898 63.427 41.823 71.121 
268 63.182 89.992 41.974 43.240 59.417 31.135 
269 13.504 100.00 0.0000 31.508 62.528 9.7641 
270 100.00 0.0000 13.228 41.735 23.579 5.7088 
271 63.881 40.826 100.00 43.698 33.432 92.074 
272 69.387 84.838 20.792 39.465 52.894 16.908 
273 0.0000 70.279 45.136 21.004 31.996 29.874 
274 79.094 64.754 40.908 39.342 38.453 28.412 
275 62.385 54.099 17.396 23.251 24.636 12.133 
276 64.408 14.621 0.0000 15.457 10.245 4.0552 
277 70.028 15.606 44.651 24.704 15.409 27.477 
278 0.0000 63.544 0.0000 12.149 22.707 6.6626 
279 83.475 47.274 20.502 33.644 27.967 14.007 
280 55.866 0.0000 32.671 15.003 8.4587 17.499 
281 58.007 0.0000 100.00 35.893 21.677 89.665 
282 100.00 0.0000 87.698 60.144 34.581 71.698 
283 0.0000 13.792 67.215 14.090 9.9520 44.992 
284 84.123 17.001 58.549 36.644 22.305 39.241 
285 59.579 32.873 15.966 17.488 14.798 9.6502 
286 10.410 32.998 28.659 8.7507 10.194 15.459 
287 17.231 40.031 85.650 26.242 22.715 71.311 
288 37.568 41.561 10.108 12.297 14.438 7.9360 
289 0.0000 69.015 85.092 32.561 38.680 72.216 
290 14.442 100.00 36.187 36.188 65.495 25.937 
291 100.00 40.549 0.0000 45.558 32.664 3.9357 
292 82.143 45.435 78.429 46.250 35.191 62.343 
293 52.674 0.0000 67.300 21.884 12.356 47.177 
294 0.0000 87.868 66.793 34.633 52.931 50.335 
295 86.530 100.00 40.524 62.165 79.637 30.060 
296 71.777 85.586 67.232 51.172 60.300 53.730 
297 43.216 100.00 31.671 40.723 67.931 23.646 
298 39.245 32.908 85.845 28.758 22.075 71.224 
299 0.0000 45.662 67.543 19.421 19.851 48.241 
300 12.161 100.00 100.00 55.801 77.938 95.909 
301 67.049 0.0000 85.516 33.835 19.793 69.467 
302 100.00 89.041 100.00 87.981 85.362 95.640 
303 20.246 60.698 56.526 22.163 26.943 39.897 
304 52.177 55.457 40.416 23.469 25.437 26.082 
305 72.617 87.018 83.932 57.720 65.622 73.219 
306 40.512 16.723 66.475 19.674 13.305 45.576 
307 68.507 49.232 50.605 30.858 26.926 34.674 
308 65.622 100.00 54.525 52.922 74.824 41.150 
309 54.115 37.240 66.394 26.395 21.196 46.868 
310 100.00 76.138 31.267 60.318 57.398 21.205 
311 54.728 65.623 0.0000 22.376 29.464 7.2540 
312 63.126 12.526 64.370 25.735 15.595 43.811 
313 72.827 18.080 23.704 22.552 14.593 13.171 
314 23.268 15.278 34.947 8.9949 6.8416 18.854 
315 87.648 68.954 59.645 51.193 47.911 43.733 
316 0.0000 85.595 85.198 40.459 55.172 73.237 
317 35.798 84.371 69.210 38.475 52.245 54.369 
318 36.062 47.494 35.919 16.980 18.899 21.773 
319 86.083 36.277 59.152 40.968 28.790 40.367 
320 58.210 100.00 30.361 44.953 70.058 23.042 
321 46.745 14.614 32.317 13.276 9.0829 17.449 
322 81.573 73.869 86.954 58.271 56.019 76.657 
323 85.991 49.387 48.206 41.055 33.166 31.962 
324 28.062 87.906 19.654 28.437 49.544 15.886 
325 68.992 17.993 85.124 36.289 22.988 70.005 
326 100.00 66.147 100.00 77.311 62.575 93.814 
327 33.358 64.806 84.517 34.844 37.066 72.028 
328 41.351 17.736 80.522 25.093 16.700 62.804 
329 100.00 100.00 88.719 89.918 96.058 80.239 
330 66.336 0.0000 44.320 21.485 12.008 26.480 
331 64.850 67.090 12.293 27.812 33.590 11.023 
332 15.262 31.268 63.277 16.572 14.419 42.597 
333 15.008 43.663 37.300 13.228 15.331 23.146 
334 0.0000 57.895 38.078 15.442 22.058 23.797 
335 66.599 58.458 67.871 36.825 33.838 51.879 
336 59.191 18.651 15.215 14.852 10.743 8.2116 
337 66.781 31.140 84.629 36.988 25.912 70.306 
338 88.033 85.158 52.140 57.378 62.950 39.426 
339 36.882 100.00 100.00 59.626 80.462 95.866 
340 26.102 33.094 17.006 9.2560 10.403 10.177 
341 56.309 36.861 35.862 20.051 17.269 21.449 
342 45.839 65.587 67.033 31.512 34.964 50.026 
343 83.709 81.172 16.406 45.058 52.676 14.551 
344 0.0000 48.132 13.005 8.7887 15.013 8.2456 
345 87.176 50.021 100.00 59.591 45.110 93.026 
346 51.219 84.244 13.730 30.639 47.298 13.196 
347 60.606 71.415 48.406 33.805 39.524 33.868 
348 0.0000 11.359 12.718 2.8907 2.9356 6.3973 
349 86.429 49.705 33.145 38.470 31.475 21.150 
350 34.056 40.958 100.00 34.929 28.689 91.461 
351 100.00 30.557 59.628 53.785 34.800 39.475 
352 88.497 26.902 13.449 32.522 21.911 8.4130 
353 14.167 51.980 88.218 29.216 28.154 74.757 
354 13.784 12.983 49.370 10.558 7.5731 29.702 
355 15.018 88.441 48.062 31.972 52.104 34.685 
356 87.790 25.769 89.215 50.600 32.267 76.294 
357 0.0000 33.206 55.865 14.120 13.097 36.605 
358 74.324 76.029 35.536 39.852 45.961 25.300 
359 65.863 57.223 42.324 29.796 29.777 28.113 
360 30.893 54.646 13.136 13.997 19.659 9.5783 
361 0.0000 34.360 28.321 8.3698 10.370 15.425 
362 15.443 77.087 85.116 37.145 46.477 73.237 
363 63.381 68.947 68.521 39.475 41.620 52.545 
364 69.733 27.566 42.917 25.450 17.890 26.586 
365 32.754 100.00 42.760 40.500 67.875 30.954 
366 47.096 29.481 34.829 15.838 13.245 20.284 
367 8.5451 71.948 62.695 26.527 36.178 45.891 
368 0.0000 86.048 29.300 26.013 46.488 21.771 
369 53.697 51.572 85.367 36.172 31.774 72.035 
370 17.608 56.690 12.515 12.573 19.656 10.568 
371 90.638 14.414 49.227 38.929 22.940 30.481 
372 63.248 63.640 89.550 44.763 41.641 79.761 
373 100.00 85.976 58.455 71.380 71.740 43.894 
374 9.8311 28.027 7.5567 5.0922 6.8718 5.0940 
375 89.831 64.313 69.506 53.484 46.280 53.681 
376 31.754 12.995 25.543 8.6829 6.1717 13.523 
377 75.914 45.966 64.957 37.722 29.921 46.808 
378 7.5735 50.695 58.941 18.375 20.806 39.910 
379 100.00 69.835 58.912 63.352 55.060 41.562 
380 32.211 34.376 48.339 16.258 14.505 31.031 
381 13.901 12.159 73.555 17.027 11.508 52.924 
382 87.071 9.0280 77.653 43.437 25.210 59.398 
383 23.272 85.409 84.290 42.242 55.779 73.268 
384 93.289 39.480 26.145 40.264 29.447 15.513 
385 65.769 59.630 30.967 28.289 29.899 20.363 
386 100.00 32.265 41.803 50.052 32.899 24.662 
387 86.568 85.281 86.961 67.177 69.742 78.414 
388 52.577 86.830 30.016 34.835 51.904 21.974 
389 47.921 40.199 76.902 28.856 23.438 60.268 
390 22.360 86.619 61.580 34.855 52.050 45.754 
391 52.232 33.601 88.787 33.350 24.986 75.149 
392 0.0000 28.523 86.267 22.584 17.701 69.909 
393 43.497 67.879 39.551 25.481 32.643 27.210 
394 39.877 45.261 0.0000 12.681 15.756 5.6338 
395 86.940 12.430 24.699 30.885 18.281 13.769 
396 28.363 55.339 90.398 33.227 31.720 79.125 
397 39.018 70.534 57.879 29.680 36.493 42.224 
398 12.833 28.519 78.828 21.097 16.485 60.782 
399 68.350 31.815 69.975 32.281 22.987 51.220 
400 56.520 26.226 41.626 19.509 14.490 25.372 
401 12.938 46.218 0.0000 8.5018 13.744 5.4372 
402 8.6938 60.179 26.117 14.318 22.562 16.472 
403 51.995 89.429 96.608 55.579 67.209 91.480 
404 46.905 47.746 48.909 22.188 21.853 32.069 
405 14.352 81.814 19.479 22.858 41.125 14.696 
406 71.482 38.117 12.273 22.999 19.195 8.9048 
407 86.616 60.785 10.012 38.122 35.732 10.003 
408 71.811 88.979 52.186 48.545 61.484 39.047 
409 43.213 100.00 72.083 50.310 73.346 58.429 
410 73.920 23.444 8.2853 21.786 15.143 6.4765 
411 40.629 85.534 53.423 36.017 51.498 38.633 
412 38.955 52.128 22.885 16.113 20.156 13.953 
413 46.480 12.229 8.6707 9.7211 6.5480 5.8730 
414 40.855 33.301 22.309 12.929 12.584 12.538 
