CTI3   

DESCRIPTOR "Argyll Calibration Target chart information 3"
ORIGINATOR "Argyll dispread"
CREATED "Tue Jan 10 15:11:27 2012"
KEYWORD "DEVICE_CLASS"
DEVICE_CLASS "DISPLAY"
KEYWORD "COLOR_REP"
COLOR_REP "RGB_XYZ"
KEYWORD "TARGET_INSTRUMENT"
TARGET_INSTRUMENT "Hughski ColorHug"
KEYWORD "INSTRUMENT_TYPE_SPECTRAL"
INSTRUMENT_TYPE_SPECTRAL "NO"
KEYWORD "LUMINANCE_XYZ_CDM2"
LUMINANCE_XYZ_CDM2 "189.867523 190.792343 261.579987"
KEYWORD "NORMALIZED_TO_Y_100"
NORMALIZED_TO_Y_100 "YES"

NUMBER_OF_FIELDS 7
BEGIN_DATA_FORMAT
SAMPLE_ID RGB_R RGB_G RGB_B XYZ_X XYZ_Y XYZ_Z 
END_DATA_FORMAT

NUMBER_OF_SETS 836
BEGIN_DATA
1 100.00 100.00 100.00 99.515 100.00 137.10 
2 100.00 100.00 100.00 99.515 100.00 137.10 
3 100.00 100.00 100.00 99.515 100.00 137.10 
4 100.00 100.00 100.00 99.692 100.07 137.03 
5 33.330 32.622 30.968 7.7772 7.8043 9.6347 
6 100.00 0.0000 100.00 67.990 29.308 125.89 
7 100.00 100.00 0.0000 67.865 89.970 11.231 
8 0.0000 100.00 100.00 63.376 81.084 136.83 
9 0.0000 100.00 0.0000 31.882 71.317 11.404 
10 0.0000 0.0000 100.00 32.161 10.432 126.17 
11 100.00 0.0000 0.0000 36.363 19.570 3.4349e+04 
12 0.0000 0.0000 0.0000 0.46631 0.30236 0.99122 
13 0.0000 52.455 100.00 39.791 27.246 130.47 
14 100.00 0.0000 50.300 42.490 20.795 24.385 
15 100.00 54.739 100.00 76.890 48.358 130.51 
16 100.00 52.128 0.0000 43.768 35.244 4.2355 
17 0.0000 0.0000 46.181 5.2402 1.5329 19.495 
18 0.0000 51.141 0.0000 7.5150 15.351 5.1952 
19 0.0000 100.00 51.348 37.876 72.571 35.327 
20 100.00 100.00 52.037 74.438 91.689 37.285 
21 49.216 0.0000 0.0000 7.2249 3.8845 1.3780 
22 56.159 100.00 0.0000 41.719 76.147 12.363 
23 49.226 100.00 100.00 70.799 84.845 137.62 
24 44.487 0.0000 100.00 37.323 12.902 126.88 
25 100.00 44.498 52.029 48.154 32.145 29.159 
26 48.926 48.544 100.00 45.766 28.216 130.67 
27 51.368 100.00 47.250 44.832 76.358 32.410 
28 49.893 0.0000 49.033 12.997 5.2979 23.361 
29 53.109 51.372 0.0000 15.870 20.046 5.2527 
30 0.0000 58.587 53.943 17.166 23.693 33.027 
31 100.00 28.065 100.00 69.797 33.209 127.01 
32 0.0000 0.0000 72.874 14.723 4.0874 57.718 
33 0.0000 26.758 100.00 33.635 14.001 126.91 
34 0.0000 25.426 0.0000 1.7608 3.3161 1.4738 
35 72.508 0.0000 100.00 49.843 19.555 126.89 
36 100.00 27.395 0.0000 38.124 22.886 1.3141 
37 74.470 100.00 100.00 83.141 91.429 137.70 
38 100.00 0.0000 25.728 37.606 19.886 5.0809 
39 73.862 0.0000 0.0000 19.367 10.106 1.7103 
40 100.00 100.00 25.402 69.132 90.578 16.294 
41 0.0000 75.751 100.00 49.875 49.631 134.78 
42 0.0000 75.172 0.0000 17.489 38.059 8.7027 
43 0.0000 100.00 25.864 33.279 71.410 16.748 
44 100.00 0.0000 74.801 52.129 23.612 63.051 
45 0.0000 100.00 75.421 47.359 75.125 73.549 
46 24.577 0.0000 0.0000 2.0394 1.1223 0.84011 
47 26.321 100.00 0.0000 33.742 71.884 11.978 
48 100.00 75.835 0.0000 54.052 57.992 8.2905 
49 100.00 100.00 77.061 84.632 94.679 78.261 
50 71.263 100.00 0.0000 49.563 80.439 12.125 
51 0.0000 0.0000 15.614 0.73244 0.24262 2.2350 
52 0.0000 30.049 70.936 15.421 8.1278 54.556 
53 100.00 77.691 100.00 87.153 71.298 135.09 
54 24.486 100.00 100.00 65.082 81.874 137.30 
55 100.00 62.784 31.909 49.893 44.784 14.402 
56 29.552 0.0000 100.00 34.111 11.684 125.69 
57 32.980 70.921 100.00 50.258 45.659 133.92 
58 0.0000 27.681 40.241 5.4701 4.7856 15.003 
59 67.901 71.021 100.00 63.243 52.614 134.92 
60 28.154 100.00 67.829 45.933 75.240 59.911 
61 71.637 100.00 70.001 62.842 83.848 64.855 
62 58.822 58.763 53.586 28.269 29.789 33.627 
63 33.466 30.480 0.0000 5.5546 6.2987 2.7681 
64 100.00 73.795 71.277 67.063 59.833 64.518 
65 68.394 29.692 0.0000 18.118 13.051 2.0773 
66 70.399 0.0000 29.039 18.506 9.3926 7.3250 
67 28.078 0.0000 26.956 3.9035 1.5180 7.1757 
68 28.532 72.339 0.0000 18.411 36.237 8.9859 
69 100.00 30.941 26.496 40.103 24.744 6.7588 
70 34.597 0.0000 73.611 18.203 5.7311 60.496 
71 71.573 0.0000 72.408 32.051 13.071 58.588 
72 0.0000 71.029 29.412 17.302 34.092 14.870 
73 68.386 75.008 0.0000 33.421 46.292 9.6496 
74 68.088 27.309 100.00 49.389 22.164 127.94 
75 100.00 26.457 73.749 53.157 26.685 62.290 
76 74.344 100.00 27.392 53.001 81.655 18.310 
77 27.558 100.00 28.197 35.452 72.502 18.210 
78 31.196 27.465 100.00 36.205 15.332 127.53 
79 0.0000 75.521 72.824 32.414 42.994 66.508 
80 0.0000 50.930 25.553 8.8259 16.059 9.5613 
81 32.060 33.584 64.033 16.151 10.498 43.578 
82 81.666 55.380 0.0000 32.763 30.960 6.3128 
83 68.257 32.751 58.286 27.003 16.147 36.316 
84 0.0000 55.248 81.585 27.909 24.258 80.374 
85 73.781 52.099 100.00 58.492 36.687 131.44 
86 100.00 50.537 82.952 63.665 40.144 85.034 
87 23.550 0.0000 50.439 7.7468 2.6291 24.037 
88 31.335 62.746 31.114 16.325 27.200 14.748 
89 100.00 18.310 49.418 42.583 21.964 23.672 
90 26.498 48.404 0.0000 8.3732 14.437 4.3219 
91 47.910 100.00 85.744 60.137 80.739 98.020 
92 71.829 47.313 31.811 26.081 22.866 12.997 
93 31.304 64.132 69.316 27.831 31.712 57.719 
94 80.403 0.0000 54.321 29.641 13.638 29.771 
95 18.455 50.036 100.00 39.764 25.983 129.97 
96 50.653 100.00 16.345 39.925 75.157 13.284 
97 80.121 100.00 52.261 61.033 84.688 37.652 
98 0.0000 22.540 19.289 2.0697 2.5422 4.3920 
99 100.00 75.273 46.886 59.004 58.963 29.431 
100 0.0000 78.618 56.625 27.226 44.973 39.884 
101 51.137 80.627 100.00 60.088 59.782 136.28 
102 48.446 0.0000 17.864 7.6241 3.7949 3.2436 
103 100.00 50.023 21.211 44.187 34.148 7.9538 
104 50.115 20.118 0.0000 8.4711 5.8281 1.8771 
105 58.099 72.426 33.158 29.318 41.471 18.310 
106 19.364 100.00 50.197 38.608 73.142 34.851 
107 50.683 19.177 100.00 40.166 15.958 127.05 
108 53.370 0.0000 81.576 27.453 9.7736 77.124 
109 47.768 76.245 0.0000 24.783 42.821 9.5461 
110 0.0000 18.927 55.503 8.4635 3.7068 30.181 
111 0.0000 13.277 0.0000 0.82266 0.92701 1.1824 
112 72.862 72.473 75.625 50.843 49.568 73.008 
113 100.00 13.904 0.0000 36.829 19.873 0.83161 
114 86.349 0.0000 100.00 58.241 24.349 126.25 
115 100.00 41.941 100.00 72.696 39.276 128.52 
116 100.00 81.785 16.464 57.755 65.664 11.843 
117 0.0000 44.063 52.596 11.969 12.645 29.244 
118 0.0000 0.0000 58.917 8.7053 2.5408 33.973 
119 59.250 24.551 29.789 14.527 9.4452 8.6621 
120 82.730 82.874 100.00 78.199 71.377 137.33 
121 80.039 0.0000 12.618 22.846 12.078 1.7774 
122 60.957 47.729 77.817 35.644 24.641 73.049 
123 100.00 0.0000 38.618 39.382 20.083 12.809 
124 0.0000 40.090 100.00 36.177 19.444 128.24 
125 0.0000 15.283 82.322 19.834 6.6209 77.271 
126 17.592 81.726 100.00 54.065 57.742 136.09 
127 100.00 14.130 100.00 68.369 30.225 125.90 
128 15.261 100.00 82.059 51.644 76.575 88.870 
129 47.770 79.418 60.389 35.918 49.828 46.072 
130 18.768 16.429 0.0000 1.7335 2.0531 0.97227 
131 55.634 100.00 65.763 52.402 78.918 56.522 
132 100.00 100.00 38.541 70.952 90.874 23.325 
133 17.421 0.0000 83.497 20.985 6.0957 80.514 
134 17.237 16.758 100.00 33.251 12.113 126.22 
135 0.0000 15.067 30.039 2.5118 1.7383 7.9322 
136 0.0000 0.0000 86.505 22.119 6.4055 87.665 
137 75.736 72.799 50.020 42.490 47.824 33.465 
138 100.00 83.323 85.529 79.968 74.053 96.425 
139 100.00 100.00 64.894 78.724 92.810 55.316 
140 81.980 84.914 0.0000 46.821 63.072 11.015 
141 0.0000 63.757 15.490 12.780 26.792 8.1036 
142 49.514 66.135 100.00 52.371 43.255 133.70 
143 100.00 0.0000 61.862 46.088 21.773 39.485 
144 24.308 45.410 49.831 13.212 14.432 26.693 
145 15.963 0.0000 17.047 1.4199 0.71419 2.4556 
146 87.497 100.00 100.00 90.785 95.359 137.71 
147 52.099 25.003 75.752 25.505 11.620 65.069 
148 14.909 81.162 0.0000 21.255 45.153 10.701 
149 0.0000 34.792 14.626 3.8108 6.8650 4.0131 
150 48.390 45.075 22.552 13.334 15.731 7.6613 
151 83.545 65.965 100.00 69.941 52.214 133.29 
152 16.226 62.345 0.0000 12.286 25.226 6.6109 
153 63.222 0.0000 14.914 13.208 6.7959 2.9366 
154 80.449 13.446 0.0000 23.070 12.732 1.3467 
155 83.917 41.562 0.0000 29.324 22.743 3.6639 
156 100.00 60.448 46.300 52.088 43.885 25.849 
157 15.584 0.0000 34.795 3.3521 1.1733 10.627 
158 17.144 65.121 100.00 45.587 38.895 133.16 
159 83.602 55.334 62.667 43.599 34.651 45.495 
160 0.0000 82.190 14.220 21.749 46.719 12.194 
161 25.132 74.856 50.616 25.259 40.981 32.562 
162 0.0000 13.769 100.00 32.363 11.280 126.25 
163 87.181 0.0000 0.0000 27.078 14.428 0.85089 
164 0.0000 100.00 39.190 34.768 71.859 23.751 
165 78.047 65.914 19.865 35.586 39.740 11.257 
166 100.00 63.961 15.865 48.786 45.737 7.7528 
167 100.00 45.955 36.032 44.758 32.015 14.147 
168 15.926 100.00 16.890 32.945 71.406 13.668 
169 41.459 100.00 0.0000 36.734 73.746 11.572 
170 48.707 37.288 48.139 16.145 12.798 24.604 
171 83.381 100.00 13.285 56.986 84.200 12.911 
172 78.129 25.303 75.621 38.889 18.814 65.221 
173 12.396 0.0000 0.0000 0.66651 0.66446 0.73868 
174 37.607 48.336 83.346 30.400 21.143 84.908 
175 35.588 15.356 0.0000 4.1480 3.1219 1.1456 
176 61.245 100.00 100.00 75.651 87.275 137.78 
177 100.00 67.290 87.195 73.201 55.825 99.719 
178 0.0000 0.0000 30.615 2.3094 0.89090 7.8449 
179 35.187 81.789 83.323 44.926 54.042 90.941 
180 39.525 80.194 22.879 25.864 46.793 14.529 
181 50.634 34.593 0.0000 10.788 10.131 3.2894 
182 14.175 100.00 63.146 42.118 73.921 51.343 
183 83.493 17.728 34.574 27.885 15.048 11.023 
184 23.463 22.014 79.943 20.965 8.2446 73.580 
185 18.066 31.847 0.0000 3.6945 5.7313 2.1935 
186 87.201 100.00 81.361 78.123 90.730 88.107 
187 0.0000 100.00 87.950 54.755 77.443 103.50 
188 34.476 17.888 46.220 8.9009 4.5453 20.168 
189 18.277 0.0000 67.390 12.923 3.9269 47.457 
190 100.00 87.972 0.0000 60.881 73.685 10.894 
191 82.925 34.850 100.00 59.369 29.719 128.50 
192 0.0000 88.016 100.00 57.105 66.049 136.88 
193 36.104 85.655 100.00 58.756 64.313 136.34 
194 60.981 0.0000 0.0000 12.077 6.3144 1.5465 
195 51.466 61.826 78.106 36.565 33.568 75.744 
196 78.427 31.983 22.175 25.169 17.023 6.5800 
197 66.017 44.321 0.0000 20.155 19.062 3.7834 
198 83.941 0.0000 84.177 45.295 18.987 84.051 
199 20.158 46.612 23.269 8.1299 13.647 7.9813 
200 0.0000 100.00 62.618 41.474 73.549 50.426 
201 33.832 0.0000 13.933 3.5474 2.0356 1.9033 
202 100.00 17.286 16.322 37.297 20.660 2.1627 
203 0.0000 42.204 83.926 25.159 15.855 83.367 
204 0.0000 87.774 0.0000 24.695 54.185 10.980 
205 64.988 0.0000 59.017 22.666 9.7150 35.916 
206 14.677 0.0000 100.00 32.361 10.794 125.91 
207 88.934 82.673 35.021 52.379 63.010 20.709 
208 0.0000 63.778 100.00 44.497 37.214 133.10 
209 83.429 17.674 100.00 57.181 24.416 127.03 
210 30.899 100.00 85.668 55.816 78.518 97.629 
211 83.680 0.0000 41.016 28.393 13.822 16.059 
212 100.00 63.515 0.0000 48.117 44.588 6.6743 
213 85.074 69.987 0.0000 40.583 45.709 8.6652 
214 20.801 45.524 69.018 19.410 16.205 53.414 
215 21.382 82.482 73.017 37.450 52.324 68.827 
216 100.00 15.128 64.249 47.422 22.773 43.673 
217 36.522 0.0000 58.427 12.162 4.2205 34.219 
218 22.466 81.296 33.007 24.454 47.363 18.854 
219 62.531 87.152 0.0000 36.991 60.183 11.416 
220 84.120 85.397 67.886 60.589 68.218 59.477 
221 18.870 27.336 45.389 7.5554 5.3505 20.568 
222 66.439 100.00 14.444 47.392 79.018 13.374 
223 41.636 22.147 19.003 6.9220 4.9721 4.5606 
224 61.271 100.00 81.940 63.255 82.587 89.425 
225 86.013 100.00 0.0000 58.293 85.080 11.516 
226 37.570 0.0000 0.0000 4.1228 2.3441 0.98399 
227 100.00 16.132 84.102 57.817 26.125 84.396 
228 0.0000 100.00 13.619 32.015 71.287 12.026 
229 38.905 100.00 56.471 43.663 74.948 42.899 
230 100.00 15.382 34.563 39.384 20.897 10.438 
231 36.656 14.908 100.00 36.130 12.999 127.05 
232 0.0000 62.593 66.608 23.414 28.493 52.279 
233 66.347 12.528 100.00 46.743 18.500 126.83 
234 100.00 43.375 69.233 54.084 33.493 54.296 
235 100.00 56.360 61.236 54.901 41.437 43.132 
236 0.0000 86.194 44.955 28.067 53.209 28.541 
237 64.527 87.262 100.00 70.240 71.811 137.30 
238 34.411 0.0000 42.471 7.3437 2.8904 16.411 
239 80.230 59.707 85.120 54.628 40.666 92.062 
240 20.625 19.056 14.791 2.5100 2.3953 2.5110 
241 15.341 34.221 100.00 35.416 17.124 127.87 
242 36.777 0.0000 87.905 27.020 8.7634 92.898 
243 34.598 56.247 100.00 44.365 31.869 131.27 
244 20.860 67.629 17.418 15.738 30.981 10.093 
245 44.958 60.843 18.054 17.491 26.982 9.0015 
246 37.421 60.193 0.0000 14.496 24.962 6.3571 
247 84.011 33.849 42.612 32.092 20.524 18.932 
248 17.241 60.339 37.743 14.681 24.689 17.805 
249 50.650 17.261 53.278 14.998 6.9628 28.287 
250 45.505 48.926 65.152 23.667 20.475 47.568 
251 44.567 84.081 39.649 31.714 53.638 24.464 
252 100.00 86.339 72.054 74.379 75.636 67.595 
253 68.140 61.135 0.0000 26.951 31.709 7.5768 
254 17.930 66.986 81.403 33.505 35.545 83.312 
255 39.242 60.215 48.926 20.625 27.001 28.531 
256 20.099 18.770 62.967 12.126 4.9199 41.355 
257 34.553 100.00 14.582 35.427 72.867 12.967 
258 87.345 0.0000 66.694 38.514 17.249 46.727 
259 0.0000 43.714 39.842 8.7487 11.770 16.528 
260 100.00 37.705 13.955 40.220 27.020 3.4971 
261 31.265 86.993 0.0000 26.707 54.044 11.318 
262 51.402 82.661 81.338 48.495 57.027 87.245 
263 100.00 100.00 12.984 68.021 90.232 11.675 
264 0.0000 37.859 0.0000 3.9472 8.1342 2.6041 
265 62.092 58.215 100.00 54.609 38.879 132.75 
266 86.186 100.00 64.100 68.708 87.425 54.092 
267 100.00 35.251 85.898 61.227 32.266 88.914 
268 63.182 89.992 41.974 42.595 64.939 27.040 
269 13.504 100.00 0.0000 32.059 71.386 11.329 
270 100.00 0.0000 13.228 36.629 19.511 1.0842 
271 63.881 40.826 100.00 49.828 26.578 129.63 
272 69.387 84.838 20.792 40.508 59.656 14.848 
273 0.0000 70.279 45.136 19.720 33.847 25.885 
274 79.094 64.754 40.908 38.359 39.635 22.124 
275 62.385 54.099 17.396 21.551 24.859 7.6231 
276 64.408 14.621 0.0000 14.163 8.0216 2.0303 
277 70.028 15.606 44.651 21.663 11.174 18.885 
278 0.0000 63.544 0.0000 12.111 25.642 7.0251 
279 83.475 47.274 20.502 31.640 26.232 7.4469 
280 55.866 0.0000 32.671 11.772 5.7745 9.4706 
281 58.007 0.0000 100.00 42.376 15.694 126.80 
282 100.00 0.0000 87.698 59.393 25.960 92.376 
283 0.0000 13.792 67.215 12.128 4.2629 46.777 
284 84.123 17.001 58.549 34.036 16.564 35.389 
285 59.579 32.873 15.966 14.555 11.850 4.0823 
286 10.410 32.998 28.659 4.7632 6.4630 7.8482 
287 17.231 40.031 85.650 26.821 15.403 89.615 
288 37.568 41.561 10.108 8.4726 11.688 3.4228 
289 0.0000 69.015 85.092 35.665 37.630 91.732 
290 14.442 100.00 36.187 34.723 72.088 21.736 
291 100.00 40.549 0.0000 40.643 28.037 2.8138 
292 82.143 45.435 78.429 47.007 29.221 73.874 
293 52.674 0.0000 67.300 20.169 7.6185 48.317 
294 0.0000 87.868 66.793 36.177 57.590 56.499 
295 86.530 100.00 40.524 62.223 85.905 26.645 
296 71.777 85.586 67.232 53.276 64.134 59.491 
297 43.216 100.00 31.671 39.197 74.415 19.521 
298 39.245 32.908 85.845 28.850 14.099 88.756 
299 0.0000 45.662 67.543 17.346 15.118 50.041 
300 12.161 100.00 100.00 63.576 81.446 136.58 
301 67.049 0.0000 85.516 36.543 13.725 87.549 
302 100.00 89.041 100.00 93.290 85.550 136.79 
303 20.246 60.698 56.526 19.921 26.222 37.300 
304 52.177 55.457 40.416 20.629 24.067 20.213 
305 72.617 87.018 83.932 62.941 68.872 93.238 
306 40.512 16.723 66.475 16.936 6.5933 47.641 
307 68.507 49.232 50.605 28.952 24.244 29.252 
308 65.622 100.00 54.525 53.212 80.360 40.421 
309 54.115 37.240 66.394 23.869 15.134 48.820 
310 100.00 76.138 31.267 56.140 58.713 16.906 
311 54.728 65.623 0.0000 22.089 32.712 7.2547 
312 63.126 12.526 64.370 23.623 9.9552 43.142 
313 72.827 18.080 23.704 20.349 11.452 6.3867 
314 23.268 15.278 34.947 4.7732 2.7013 10.712 
315 87.648 68.954 59.645 51.058 48.133 44.266 
316 0.0000 85.595 85.198 44.811 57.626 95.749 
317 35.798 84.371 69.210 38.980 55.000 61.920 
318 36.062 47.494 35.919 12.411 15.596 14.830 
319 86.083 36.277 59.152 38.464 23.352 37.447 
320 58.210 100.00 30.361 44.448 77.083 18.845 
321 46.745 14.614 32.317 8.8490 4.7891 9.3421 
322 81.573 73.869 86.954 63.339 56.077 100.14 
323 85.991 49.387 48.206 38.679 29.725 26.700 
324 28.062 87.906 19.654 27.847 56.467 14.068 
325 68.992 17.993 85.124 38.209 15.715 86.685 
326 100.00 66.147 100.00 81.442 58.549 133.04 
327 33.358 64.806 84.517 36.760 34.907 91.262 
328 41.351 17.736 80.522 24.110 9.0707 75.648 
329 100.00 100.00 88.719 91.872 96.735 107.76 
330 66.336 0.0000 44.320 19.310 8.7133 19.528 
331 64.850 67.090 12.293 27.923 36.817 9.3892 
332 15.262 31.268 63.277 13.089 8.0868 41.808 
333 15.008 43.663 37.300 8.5266 11.929 14.588 
334 0.0000 57.895 38.078 13.035 22.021 17.811 
335 66.599 58.458 67.871 37.231 32.942 54.612 
336 59.191 18.651 15.215 12.548 7.5874 3.2174 
337 66.781 31.140 84.629 38.507 18.703 86.739 
338 88.033 85.158 52.140 57.429 67.750 37.075 
339 36.882 100.00 100.00 67.165 83.096 137.45 
340 26.102 33.094 17.006 5.3146 6.8076 4.3965 
341 56.309 36.861 35.862 16.116 13.334 13.600 
342 45.839 65.587 67.033 30.824 34.388 54.942 
343 83.709 81.172 16.406 46.008 58.383 12.697 
344 0.0000 48.132 13.005 6.9563 13.879 4.9167 
345 87.176 50.021 100.00 65.955 39.577 130.85 
346 51.219 84.244 13.730 30.687 53.663 12.692 
347 60.606 71.415 48.406 33.199 41.554 30.745 
348 0.0000 11.359 12.718 0.79958 0.63458 1.3606 
349 86.429 49.705 33.145 35.836 29.282 13.657 
350 34.056 40.958 100.00 39.436 21.246 129.07 
351 100.00 30.557 59.628 47.586 26.448 37.684 
352 88.497 26.902 13.449 30.014 18.325 3.0185 
353 14.167 51.980 88.218 31.369 23.482 96.543 
354 13.784 12.983 49.370 6.5951 2.3405 23.165 
355 15.018 88.441 48.062 30.914 56.907 32.101 
356 87.790 25.769 89.215 53.222 24.456 98.191 
357 0.0000 33.206 55.865 10.450 8.1627 31.563 
358 74.324 76.029 35.536 40.101 50.146 20.580 
359 65.863 57.223 42.324 28.213 29.062 22.122 
360 30.893 54.646 13.136 11.380 19.696 6.2948 
361 0.0000 34.360 28.321 4.8984 6.9185 8.8099 
362 15.443 77.087 85.116 40.546 47.182 93.948 
363 63.381 68.947 68.521 40.120 41.628 58.342 
364 69.733 27.566 42.917 22.468 13.593 18.554 
365 32.754 100.00 42.760 38.692 73.513 27.698 
366 47.096 29.481 34.829 11.099 8.7000 11.629 
367 8.5451 71.948 62.695 26.144 37.902 47.434 
368 0.0000 86.048 29.300 25.579 52.577 18.060 
369 53.697 51.572 85.367 37.900 26.581 91.599 
370 17.608 56.690 12.515 10.543 20.418 6.6500 
371 90.638 14.414 49.227 35.624 18.020 23.538 
372 63.248 63.640 89.550 49.484 40.279 104.57 
373 100.00 85.976 58.455 68.448 73.475 44.829 
374 9.8311 28.027 7.5567 2.1171 3.9408 1.6649 
375 89.831 64.313 69.506 54.045 45.598 58.424 
376 31.754 12.995 25.543 4.4810 2.3118 6.5963 
377 75.914 45.966 64.957 36.800 25.752 47.649 
378 7.5735 50.695 58.941 15.931 17.659 38.103 
379 100.00 69.835 58.912 59.724 53.681 42.500 
380 32.211 34.376 48.339 11.288 9.3970 23.756 
381 13.901 12.159 73.555 15.812 4.9547 60.144 
382 87.071 9.0280 77.653 43.624 18.968 68.651 
383 23.272 85.409 84.290 45.607 58.104 94.059 
384 93.289 39.480 26.145 36.834 25.561 8.1383 
385 65.769 59.630 30.967 27.329 30.670 15.042 
386 100.00 32.265 41.803 42.791 25.738 16.987 
387 86.568 85.281 86.961 72.823 72.330 101.29 
388 52.577 86.830 30.016 34.246 57.796 19.005 
389 47.921 40.199 76.902 27.253 17.070 68.420 
390 22.360 86.619 61.580 34.728 56.270 48.121 
391 52.232 33.601 88.787 34.951 17.487 97.555 
392 0.0000 28.523 86.267 23.793 10.336 88.160 
393 43.497 67.879 39.551 23.013 34.137 21.957 
394 39.877 45.261 0.0000 10.052 13.964 4.2912 
395 86.940 12.430 24.699 28.189 14.774 5.4695 
396 28.363 55.339 90.398 35.989 27.219 104.78 
397 39.018 70.534 57.879 27.819 37.601 41.642 
398 12.833 28.519 78.828 19.773 9.1556 71.373 
399 68.350 31.815 69.975 31.599 17.308 54.894 
400 56.520 26.226 41.626 15.397 9.4863 17.280 
401 12.938 46.218 0.0000 6.4417 12.507 3.9421 
402 8.6938 60.179 26.117 12.440 23.861 11.796 
403 51.995 89.429 96.608 63.749 70.125 130.70 
404 46.905 47.746 48.909 18.313 18.294 26.593 
405 14.352 81.814 19.479 22.546 46.868 13.215 
406 71.482 38.117 12.273 21.608 17.450 3.8436 
407 86.616 60.785 10.012 37.764 37.571 7.1114 
408 71.811 88.979 52.186 49.555 67.084 37.677 
409 43.213 100.00 72.083 51.034 77.631 67.603 
410 73.920 23.444 8.2853 20.505 12.857 1.7491 
411 40.629 85.534 53.423 34.807 55.998 37.577 
412 38.955 52.128 22.885 13.060 18.895 8.9746 
413 46.480 12.229 8.6707 6.5836 3.9977 0.80097 
414 40.855 33.301 22.309 8.6849 8.7735 6.3742 
