CTI3   

DESCRIPTOR "Argyll Calibration Target chart information 3"
ORIGINATOR "Argyll dispread"
CREATED "Tue Jan 10 14:56:29 2012"
KEYWORD "DEVICE_CLASS"
DEVICE_CLASS "DISPLAY"
KEYWORD "COLOR_REP"
COLOR_REP "RGB_XYZ"
KEYWORD "TARGET_INSTRUMENT"
TARGET_INSTRUMENT "Hughski ColorHug"
KEYWORD "INSTRUMENT_TYPE_SPECTRAL"
INSTRUMENT_TYPE_SPECTRAL "NO"
KEYWORD "LUMINANCE_XYZ_CDM2"
LUMINANCE_XYZ_CDM2 "247.229248 218.469086 265.655060"
KEYWORD "NORMALIZED_TO_Y_100"
NORMALIZED_TO_Y_100 "YES"

NUMBER_OF_FIELDS 7
BEGIN_DATA_FORMAT
SAMPLE_ID RGB_R RGB_G RGB_B XYZ_X XYZ_Y XYZ_Z 
END_DATA_FORMAT

NUMBER_OF_SETS 836
BEGIN_DATA
1 100.00 100.00 100.00 113.16 100.00 121.60 
2 100.00 100.00 100.00 113.22 99.918 120.54 
3 100.00 100.00 100.00 113.28 100.26 119.77 
4 100.00 100.00 100.00 113.05 100.31 118.69 
5 33.330 32.622 30.968 9.6191 8.5585 9.5981 
6 100.00 0.0000 100.00 90.004 35.074 110.69 
7 100.00 100.00 0.0000 85.603 92.836 6.3168 
8 0.0000 100.00 100.00 51.503 75.374 120.24 
9 0.0000 100.00 0.0000 23.686 66.585 8.1722 
10 0.0000 0.0000 100.00 28.378 9.1138 112.87 
11 100.00 0.0000 0.0000 61.396 26.149 2.9997e+04 
12 0.0000 0.0000 0.0000 0.29103 0.29013 0.32255 
13 0.0000 52.455 100.00 34.235 24.964 116.09 
14 100.00 0.0000 50.300 67.737 27.776 24.713 
15 100.00 54.739 100.00 96.253 52.205 115.82 
16 100.00 52.128 0.0000 67.462 41.555 1.1925 
17 0.0000 0.0000 46.181 5.2956 1.8614 20.425 
18 0.0000 51.141 0.0000 5.4073 14.652 2.3636 
19 0.0000 100.00 51.348 30.124 67.931 34.184 
20 100.00 100.00 52.037 92.274 94.553 33.712 
21 49.216 0.0000 0.0000 12.245 5.3361 0.042807 
22 56.159 100.00 0.0000 40.322 73.681 8.0004 
23 49.226 100.00 100.00 64.461 79.962 122.80 
24 44.487 0.0000 100.00 37.992 12.992 113.72 
25 100.00 44.498 52.029 72.457 39.012 28.687 
26 48.926 48.544 100.00 45.330 28.124 113.79 
27 51.368 100.00 47.250 42.658 74.131 29.815 
28 49.893 0.0000 49.033 18.392 7.1019 23.662 
29 53.109 51.372 0.0000 19.665 21.203 1.8591 
30 0.0000 58.587 53.943 14.460 22.454 31.738 
31 100.00 28.065 100.00 91.063 38.804 113.22 
32 0.0000 0.0000 72.874 14.315 4.4466 56.753 
33 0.0000 26.758 100.00 29.783 12.628 114.37 
34 0.0000 25.426 0.0000 1.5781 3.4068 0.97581 
35 72.508 0.0000 100.00 57.102 21.061 112.51 
36 100.00 27.395 0.0000 63.496 30.081 2.9997e+04 
37 74.470 100.00 100.00 82.643 87.952 119.61 
38 100.00 0.0000 25.728 63.797 26.799 4.6082 
39 73.862 0.0000 0.0000 30.543 13.014 2.9998e+04 
40 100.00 100.00 25.402 87.037 93.033 12.523 
41 0.0000 75.751 100.00 40.742 44.854 116.23 
42 0.0000 75.172 0.0000 12.556 35.178 4.7548 
43 0.0000 100.00 25.864 25.141 67.039 14.222 
44 100.00 0.0000 74.801 76.544 30.669 59.799 
45 0.0000 100.00 75.421 39.165 71.195 70.653 
46 24.577 0.0000 0.0000 2.8638 1.4060 0.27917 
47 26.321 100.00 0.0000 26.895 67.066 9.4870 
48 100.00 75.835 0.0000 74.202 61.106 4.7885 
49 100.00 100.00 77.061 101.20 95.998 73.481 
50 71.263 100.00 0.0000 51.711 77.267 8.6936 
51 0.0000 0.0000 15.614 0.63965 0.21189 1.9518 
52 0.0000 30.049 70.936 15.121 8.9705 53.913 
53 100.00 77.691 100.00 103.19 72.190 116.38 
54 24.486 100.00 100.00 54.324 75.846 120.54 
55 100.00 62.784 31.909 72.640 50.418 10.886 
56 29.552 0.0000 100.00 31.897 10.426 111.99 
57 32.980 70.921 100.00 44.247 42.489 115.34 
58 0.0000 27.681 40.241 5.4205 5.2389 15.648 
59 67.901 71.021 100.00 64.015 50.602 115.63 
60 28.154 100.00 67.829 39.407 71.848 56.490 
61 71.637 100.00 70.001 64.806 82.056 61.076 
62 58.822 58.763 53.586 32.585 30.240 31.977 
63 33.466 30.480 0.0000 7.0769 7.1187 1.0415 
64 100.00 73.795 71.277 86.923 63.449 59.244 
65 68.394 29.692 0.0000 27.038 15.379 0.65740 
66 70.399 0.0000 29.039 29.155 12.029 7.7476 
67 28.078 0.0000 26.956 5.3630 2.1982 6.4830 
68 28.532 72.339 0.0000 15.446 33.417 4.7156 
69 100.00 30.941 26.496 65.439 31.820 5.7108 
70 34.597 0.0000 73.611 20.293 7.0381 57.945 
71 71.573 0.0000 72.408 42.091 16.484 54.867 
72 0.0000 71.029 29.412 13.030 31.501 11.796 
73 68.386 75.008 0.0000 38.147 46.107 3.9335 
74 68.088 27.309 100.00 54.698 23.683 112.50 
75 100.00 26.457 73.749 77.252 34.340 58.033 
76 74.344 100.00 27.392 56.051 79.806 15.164 
77 27.558 100.00 28.197 28.816 68.125 15.639 
78 31.196 27.465 100.00 34.330 14.872 114.38 
79 0.0000 75.521 72.824 26.852 39.793 61.960 
80 0.0000 50.930 25.553 6.7662 15.387 7.7152 
81 32.060 33.584 64.033 17.613 11.347 43.249 
82 81.666 55.380 0.0000 44.528 33.611 1.9416 
83 68.257 32.751 58.286 36.060 19.098 35.211 
84 0.0000 55.248 81.585 24.481 23.160 75.038 
85 73.781 52.099 100.00 63.847 37.476 113.58 
86 100.00 50.537 82.952 86.121 47.106 76.252 
87 23.550 0.0000 50.439 8.8383 3.2794 24.415 
88 31.335 62.746 31.114 15.308 26.075 11.853 
89 100.00 18.310 49.418 68.497 29.807 23.364 
90 26.498 48.404 0.0000 7.9561 14.665 1.8823 
91 47.910 100.00 85.744 55.523 77.401 90.283 
92 71.829 47.313 31.811 34.906 25.332 10.850 
93 31.304 64.132 69.316 26.155 30.849 54.228 
94 80.403 0.0000 54.321 43.717 17.560 29.761 
95 18.455 50.036 100.00 35.255 24.200 115.80 
96 50.653 100.00 16.345 37.339 70.879 11.319 
97 80.121 100.00 52.261 66.990 82.610 36.177 
98 0.0000 22.540 19.289 1.9842 2.9602 3.9119 
99 100.00 75.273 46.886 79.767 62.579 25.395 
100 0.0000 78.618 56.625 21.796 40.859 37.003 
101 51.137 80.627 100.00 56.156 55.564 116.88 
102 48.446 0.0000 17.864 12.421 5.3655 2.1894 
103 100.00 50.023 21.211 67.868 41.109 4.1286 
104 50.115 20.118 0.0000 13.528 7.6051 0.10250 
105 58.099 72.426 33.158 31.819 40.601 14.425 
106 19.364 100.00 50.197 31.556 68.989 33.288 
107 50.683 19.177 100.00 41.886 16.464 113.13 
108 53.370 0.0000 81.576 32.528 11.669 73.237 
109 47.768 76.245 0.0000 24.338 40.755 5.2892 
110 0.0000 18.927 55.503 8.3448 4.1315 31.140 
111 0.0000 13.277 0.0000 0.46773 1.0302 0.39879 
112 72.862 72.473 75.625 56.226 49.090 66.349 
113 100.00 13.904 0.0000 62.191 27.133 2.9997e+04 
114 86.349 0.0000 100.00 71.899 27.257 112.67 
115 100.00 41.941 100.00 93.461 45.007 112.38 
116 100.00 81.785 16.464 77.378 68.175 6.5845 
117 0.0000 44.063 52.596 10.578 13.136 27.567 
118 0.0000 0.0000 58.917 8.7289 3.0057 33.935 
119 59.250 24.551 29.789 21.429 11.680 7.7437 
120 82.730 82.874 100.00 82.686 69.402 117.45 
121 80.039 0.0000 12.618 35.941 15.449 0.60870 
122 60.957 47.729 77.817 40.769 26.637 67.747 
123 100.00 0.0000 38.618 64.616 26.890 13.738 
124 0.0000 40.090 100.00 31.464 17.736 114.86 
125 0.0000 15.283 82.322 19.167 7.0916 75.147 
126 17.592 81.726 100.00 44.980 51.383 119.80 
127 100.00 14.130 100.00 89.930 35.748 112.50 
128 15.261 100.00 82.059 43.134 71.137 84.228 
129 47.770 79.418 60.389 35.206 46.782 43.071 
130 18.768 16.429 0.0000 2.2872 2.0972 0.52444 
131 55.634 100.00 65.763 51.065 76.043 52.927 
132 100.00 100.00 38.541 88.957 93.382 20.745 
133 17.421 0.0000 83.497 20.577 6.7600 76.181 
134 17.237 16.758 100.00 29.949 10.825 112.66 
135 0.0000 15.067 30.039 2.5624 1.6952 8.4009 
136 0.0000 0.0000 86.505 20.910 6.7003 83.294 
137 75.736 72.799 50.020 49.433 48.123 28.646 
138 100.00 83.323 85.529 97.192 76.463 86.941 
139 100.00 100.00 64.894 95.612 94.694 53.327 
140 81.980 84.914 0.0000 54.275 61.473 6.0773 
141 0.0000 63.757 15.490 9.1731 23.997 5.9919 
142 49.514 66.135 100.00 50.381 40.161 117.78 
143 100.00 0.0000 61.862 71.461 29.210 38.545 
144 24.308 45.410 49.831 13.093 14.620 26.217 
145 15.963 0.0000 17.047 1.9365 0.75409 3.0359 
146 87.497 100.00 100.00 96.105 93.520 119.29 
147 52.099 25.003 75.752 30.365 14.234 61.130 
148 14.909 81.162 0.0000 15.632 41.680 5.2586 
149 0.0000 34.792 14.626 2.9447 6.8343 3.0770 
150 48.390 45.075 22.552 16.889 16.823 5.5291 
151 83.545 65.965 100.00 77.327 52.262 114.91 
152 16.226 62.345 0.0000 9.4394 23.471 3.5093 
153 63.222 0.0000 14.914 21.221 9.1391 1.6048 
154 80.449 13.446 0.0000 36.329 16.168 2.9997e+04 
155 83.917 41.562 0.0000 43.400 26.709 0.76384 
156 100.00 60.448 46.300 74.345 48.943 24.078 
157 15.584 0.0000 34.795 3.8966 1.6137 10.947 
158 17.144 65.121 100.00 38.578 34.328 117.40 
159 83.602 55.334 62.667 56.917 37.721 42.777 
160 0.0000 82.190 14.220 15.791 42.302 8.1544 
161 25.132 74.856 50.616 21.468 37.496 29.728 
162 0.0000 13.769 100.00 28.439 9.8799 112.41 
163 87.181 0.0000 0.0000 44.760 19.054 2.9997e+04 
164 0.0000 100.00 39.190 27.216 67.448 22.380 
165 78.047 65.914 19.865 44.173 40.807 5.9657 
166 100.00 63.961 15.865 70.782 50.549 4.5632 
167 100.00 45.955 36.032 68.621 39.162 12.835 
168 15.926 100.00 16.890 25.312 66.794 11.041 
169 41.459 100.00 0.0000 32.235 69.869 9.0241 
170 48.707 37.288 48.139 20.352 14.650 23.751 
171 83.381 100.00 13.285 63.685 82.282 10.625 
172 78.129 25.303 75.621 50.984 22.537 62.245 
173 12.396 0.0000 0.0000 1.0259 0.50744 0.60593 
174 37.607 48.336 83.346 31.067 22.454 78.628 
175 35.588 15.356 0.0000 6.5229 3.7955 0.37485 
176 61.245 100.00 100.00 71.638 83.240 121.71 
177 100.00 67.290 87.195 92.573 59.815 90.012 
178 0.0000 0.0000 30.615 2.3472 0.86824 8.9327 
179 35.187 81.789 83.323 40.602 50.337 83.889 
180 39.525 80.194 22.879 23.292 43.688 10.330 
181 50.634 34.593 0.0000 15.303 12.007 0.99893 
182 14.175 100.00 63.146 34.621 68.959 49.762 
183 83.493 17.728 34.574 43.399 19.310 10.656 
184 23.463 22.014 79.943 20.889 9.0138 69.840 
185 18.066 31.847 0.0000 3.6164 6.1485 1.1632 
186 87.201 100.00 81.361 86.482 89.675 82.173 
187 0.0000 100.00 87.950 45.407 71.969 97.041 
188 34.476 17.888 46.220 11.529 5.7907 20.774 
189 18.277 0.0000 67.390 13.341 4.2944 47.688 
190 100.00 87.972 0.0000 79.609 76.045 4.7850 
191 82.925 34.850 100.00 69.833 32.663 111.48 
192 0.0000 88.016 100.00 46.129 59.251 118.75 
193 36.104 85.655 100.00 51.361 59.082 117.88 
194 60.981 0.0000 0.0000 19.479 8.2459 0.26308 
195 51.466 61.826 78.106 37.939 33.857 68.372 
196 78.427 31.983 22.175 37.277 20.485 4.5051 
197 66.017 44.321 0.0000 27.253 20.899 1.1787 
198 83.941 0.0000 84.177 59.535 22.965 79.074 
199 20.158 46.612 23.269 7.4918 13.485 6.5146 
200 0.0000 100.00 62.618 33.731 68.680 49.543 
201 33.832 0.0000 13.933 5.8053 2.6991 1.7095 
202 100.00 17.286 16.322 62.832 27.768 1.4651 
203 0.0000 42.204 83.926 23.047 15.986 79.022 
204 0.0000 87.774 0.0000 17.786 49.090 7.0422 
205 64.988 0.0000 59.017 31.477 12.498 35.046 
206 14.677 0.0000 100.00 29.152 9.4180 112.55 
207 88.934 82.673 35.021 64.797 63.889 15.865 
208 0.0000 63.778 100.00 36.778 33.804 114.75 
209 83.429 17.674 100.00 68.424 27.590 111.47 
210 30.899 100.00 85.668 48.598 74.612 89.933 
211 83.680 0.0000 41.016 44.230 18.248 16.076 
212 100.00 63.515 0.0000 69.793 49.705 3.0524 
213 85.074 69.987 0.0000 52.133 47.219 3.9681 
214 20.801 45.524 69.018 18.818 16.427 52.086 
215 21.382 82.482 73.017 31.713 48.123 63.791 
216 100.00 15.128 64.249 72.299 30.131 42.785 
217 36.522 0.0000 58.427 15.015 5.2950 34.700 
218 22.466 81.296 33.007 19.798 42.905 16.387 
219 62.531 87.152 0.0000 38.501 57.398 6.4890 
220 84.120 85.397 67.886 69.630 67.406 53.515 
221 18.870 27.336 45.389 8.0352 6.2918 20.027 
222 66.439 100.00 14.444 48.193 76.379 9.8758 
223 41.636 22.147 19.003 10.456 6.3567 3.6127 
224 61.271 100.00 81.940 61.803 80.413 81.283 
225 86.013 100.00 0.0000 66.898 84.607 8.0963 
226 37.570 0.0000 0.0000 6.7901 2.9826 0.25944 
227 100.00 16.132 84.102 81.087 33.192 78.323 
228 0.0000 100.00 13.619 23.976 66.165 10.565 
229 38.905 100.00 56.471 39.279 71.900 40.557 
230 100.00 15.382 34.563 64.579 28.225 10.205 
231 36.656 14.908 100.00 35.190 12.776 113.27 
232 0.0000 62.593 66.608 20.034 27.043 49.391 
233 66.347 12.528 100.00 51.806 19.616 113.26 
234 100.00 43.375 69.233 77.735 40.755 51.931 
235 100.00 56.360 61.236 77.461 47.272 40.967 
236 0.0000 86.194 44.955 21.855 48.600 26.347 
237 64.527 87.262 100.00 68.020 67.280 118.14 
238 34.411 0.0000 42.471 10.013 3.8607 17.261 
239 80.230 59.707 85.120 63.842 42.764 81.327 
240 20.625 19.056 14.791 3.2381 2.8546 2.6432 
241 15.341 34.221 100.00 31.475 15.872 113.22 
242 36.777 0.0000 87.905 28.283 9.9764 86.565 
243 34.598 56.247 100.00 40.704 29.976 115.75 
244 20.860 67.629 17.418 12.475 28.752 6.3946 
245 44.958 60.843 18.054 18.721 25.837 6.4182 
246 37.421 60.193 0.0000 14.501 23.833 3.4514 
247 84.011 33.849 42.612 47.520 24.867 18.118 
248 17.241 60.339 37.743 12.267 22.931 15.936 
249 50.650 17.261 53.278 20.722 9.1362 28.609 
250 45.505 48.926 65.152 26.230 21.785 45.875 
251 44.567 84.081 39.649 29.911 50.325 21.628 
252 100.00 86.339 72.054 92.097 77.442 62.592 
253 68.140 61.135 0.0000 32.975 32.251 3.2497 
254 17.930 66.986 81.403 29.503 32.822 77.695 
255 39.242 60.215 48.926 21.307 26.353 26.499 
256 20.099 18.770 62.967 12.608 5.7854 40.897 
257 34.553 100.00 14.582 29.835 67.935 10.621 
258 87.345 0.0000 66.694 55.992 22.702 44.741 
259 0.0000 43.714 39.842 7.6093 11.887 16.230 
260 100.00 37.705 13.955 64.923 34.274 1.0516 
261 31.265 86.993 0.0000 22.040 50.619 6.4402 
262 51.402 82.661 81.338 47.162 54.793 78.921 
263 100.00 100.00 12.984 84.906 91.708 9.8630 
264 0.0000 37.859 0.0000 2.9476 7.9688 1.3034 
265 62.092 58.215 100.00 55.525 37.276 116.34 
266 86.186 100.00 64.100 77.098 86.476 51.770 
267 100.00 35.251 85.898 84.493 39.074 82.979 
268 63.182 89.992 41.974 43.939 61.758 23.755 
269 13.504 100.00 0.0000 24.495 65.842 9.0131 
270 100.00 0.0000 13.228 62.092 26.280 0.29131 
271 63.881 40.826 100.00 53.342 27.492 113.23 
272 69.387 84.838 20.792 43.408 57.413 8.8633 
273 0.0000 70.279 45.136 15.531 31.720 22.734 
274 79.094 64.754 40.908 48.105 41.373 18.079 
275 62.385 54.099 17.396 27.139 25.756 4.3527 
276 64.408 14.621 0.0000 22.094 10.296 0.20524 
277 70.028 15.606 44.651 31.702 14.030 19.265 
278 0.0000 63.544 0.0000 8.6881 23.845 3.9751 
279 83.475 47.274 20.502 45.191 29.521 5.3487 
280 55.866 0.0000 32.671 18.480 7.6940 9.5638 
281 58.007 0.0000 100.00 45.728 16.171 113.14 
282 100.00 0.0000 87.698 83.080 32.867 84.736 
283 0.0000 13.792 67.215 12.203 4.6607 47.133 
284 84.123 17.001 58.549 49.760 21.479 33.447 
285 59.579 32.873 15.966 21.241 14.088 2.5023 
286 10.410 32.998 28.659 4.5707 6.7560 8.3132 
287 17.231 40.031 85.650 24.944 16.230 82.369 
288 37.568 41.561 10.108 10.653 12.756 2.5160 
289 0.0000 69.015 85.092 30.464 35.412 83.665 
290 14.442 100.00 36.187 27.582 67.488 21.190 
291 100.00 40.549 0.0000 64.211 34.736 0.90940 
292 82.143 45.435 78.429 59.237 33.073 68.725 
293 52.674 0.0000 67.300 25.741 9.6914 47.666 
294 0.0000 87.868 66.793 29.250 52.685 53.298 
295 86.530 100.00 40.524 70.870 84.686 24.336 
296 71.777 85.586 67.232 56.883 61.800 54.275 
297 43.216 100.00 31.671 35.394 71.128 17.024 
298 39.245 32.908 85.845 30.233 15.692 82.804 
299 0.0000 45.662 67.543 16.262 15.430 49.310 
300 12.161 100.00 100.00 52.546 75.003 122.47 
301 67.049 0.0000 85.516 44.140 16.493 81.390 
302 100.00 89.041 100.00 107.27 84.910 119.59 
303 20.246 60.698 56.526 17.639 24.967 35.145 
304 52.177 55.457 40.416 24.229 24.692 18.157 
305 72.617 87.018 83.932 65.769 66.288 84.004 
306 40.512 16.723 66.475 19.979 8.3507 46.239 
307 68.507 49.232 50.605 36.778 26.884 26.055 
308 65.622 100.00 54.525 54.112 78.047 37.440 
309 54.115 37.240 66.394 29.304 17.767 46.046 
310 100.00 76.138 31.267 76.532 62.854 12.103 
311 54.728 65.623 0.0000 24.671 32.169 3.1943 
312 63.126 12.526 64.370 31.833 13.117 42.300 
313 72.827 18.080 23.704 30.900 14.344 4.9485 
314 23.268 15.278 34.947 5.7381 3.3599 11.214 
315 87.648 68.954 59.645 63.877 50.557 39.891 
316 0.0000 85.595 85.198 37.218 53.236 88.285 
317 35.798 84.371 69.210 35.138 51.139 58.066 
318 36.062 47.494 35.919 14.017 16.420 13.991 
319 86.083 36.277 59.152 54.325 27.961 36.432 
320 58.210 100.00 30.361 43.630 73.443 17.412 
321 46.745 14.614 32.317 13.802 6.4924 10.049 
322 81.573 73.869 86.954 70.986 56.040 88.580 
323 85.991 49.387 48.206 53.701 34.132 23.542 
324 28.062 87.906 19.654 22.472 51.700 10.111 
325 68.992 17.993 85.124 46.330 19.159 78.849 
326 100.00 66.147 100.00 98.991 61.616 114.11 
327 33.358 64.806 84.517 34.068 33.900 81.697 
328 41.351 17.736 80.522 26.691 10.865 70.956 
329 100.00 100.00 88.719 106.69 98.992 96.491 
330 66.336 0.0000 44.320 27.927 11.667 18.626 
331 64.850 67.090 12.293 32.356 36.701 4.5625 
332 15.262 31.268 63.277 13.412 8.8879 42.197 
333 15.008 43.663 37.300 8.1301 11.988 14.974 
334 0.0000 57.895 38.078 10.656 20.709 16.458 
335 66.599 58.458 67.871 43.081 33.828 50.959 
336 59.191 18.651 15.215 19.428 9.5989 2.2139 
337 66.781 31.140 84.629 45.490 21.511 79.803 
338 88.033 85.158 52.140 68.763 67.390 32.267 
339 36.882 100.00 100.00 58.405 77.483 120.45 
340 26.102 33.094 17.006 5.9411 7.6219 3.1501 
341 56.309 36.861 35.862 22.240 15.767 12.302 
342 45.839 65.587 67.033 31.610 34.200 49.574 
343 83.709 81.172 16.406 55.694 58.567 7.5417 
344 0.0000 48.132 13.005 5.2680 13.288 3.7497 
345 87.176 50.021 100.00 77.365 42.251 114.27 
346 51.219 84.244 13.730 29.960 50.830 8.1383 
347 60.606 71.415 48.406 36.156 41.008 27.107 
348 0.0000 11.359 12.718 0.81635 0.95193 2.0281 
349 86.429 49.705 33.145 50.771 32.970 11.597 
350 34.056 40.958 100.00 37.501 20.669 115.29 
351 100.00 30.557 59.628 72.250 33.903 36.157 
352 88.497 26.902 13.449 47.810 23.319 1.4110 
353 14.167 51.980 88.218 28.238 22.699 89.442 
354 13.784 12.983 49.370 7.2156 3.2078 24.210 
355 15.018 88.441 48.062 24.674 52.631 29.468 
356 87.790 25.769 89.215 68.606 29.472 88.896 
357 0.0000 33.206 55.865 10.024 8.8152 31.338 
358 74.324 76.029 35.536 46.513 49.791 16.114 
359 65.863 57.223 42.324 34.353 30.535 19.391 
360 30.893 54.646 13.136 11.162 19.415 3.9535 
361 0.0000 34.360 28.321 4.1470 7.0842 8.1967 
362 15.443 77.087 85.116 34.283 43.827 85.639 
363 63.381 68.947 68.521 44.001 41.598 53.855 
364 69.733 27.566 42.917 32.174 16.619 18.187 
365 32.754 100.00 42.760 33.096 68.900 27.014 
366 47.096 29.481 34.829 15.653 10.358 11.800 
367 8.5451 71.948 62.695 21.818 34.849 44.967 
368 0.0000 86.048 29.300 18.966 47.950 14.091 
369 53.697 51.572 85.367 40.593 28.022 82.333 
370 17.608 56.690 12.515 8.7682 19.463 4.3699 
371 90.638 14.414 49.227 54.897 23.586 23.001 
372 63.248 63.640 89.550 52.274 40.425 92.557 
373 100.00 85.976 58.455 87.112 76.413 39.967 
374 9.8311 28.027 7.5567 2.2005 4.4978 1.3097 
375 89.831 64.313 69.506 68.343 48.787 53.843 
376 31.754 12.995 25.543 6.4879 3.5587 6.0140 
377 75.914 45.966 64.957 47.057 29.221 45.271 
378 7.5735 50.695 58.941 14.369 17.606 37.384 
379 100.00 69.835 58.912 80.533 57.908 39.563 
380 32.211 34.376 48.339 13.056 10.550 23.701 
381 13.901 12.159 73.555 15.595 5.5811 58.586 
382 87.071 9.0280 77.653 60.378 24.030 65.104 
383 23.272 85.409 84.290 38.760 53.284 84.675 
384 93.289 39.480 26.145 55.916 31.082 5.7224 
385 65.769 59.630 30.967 32.960 31.559 10.804 
386 100.00 32.265 41.803 67.886 33.254 15.936 
387 86.568 85.281 86.961 81.166 71.899 88.789 
388 52.577 86.830 30.016 33.536 55.470 14.050 
389 47.921 40.199 76.902 30.695 19.018 64.265 
390 22.360 86.619 61.580 29.126 52.301 44.763 
391 52.232 33.601 88.787 38.151 19.175 89.696 
392 0.0000 28.523 86.267 22.510 10.786 84.411 
393 43.497 67.879 39.551 23.199 32.724 19.064 
394 39.877 45.261 0.0000 12.089 14.662 2.2140 
395 86.940 12.430 24.699 45.675 19.861 4.9624 
396 28.363 55.339 90.398 33.162 26.528 94.488 
397 39.018 70.534 57.879 26.760 36.099 37.264 
398 12.833 28.519 78.828 18.978 9.7866 67.538 
399 68.350 31.815 69.975 40.056 20.281 51.889 
400 56.520 26.226 41.626 21.959 11.905 16.848 
401 12.938 46.218 0.0000 5.1865 12.554 2.0050 
402 8.6938 60.179 26.117 9.5352 22.191 8.6456 
403 51.995 89.429 96.608 58.663 65.738 112.01 
404 46.905 47.746 48.909 21.822 19.778 25.371 
405 14.352 81.814 19.479 16.934 42.783 9.3034 
406 71.482 38.117 12.273 30.686 19.632 2.3926 
407 86.616 60.785 10.012 51.101 40.036 3.4891 
408 71.811 88.979 52.186 52.916 63.990 34.489 
409 43.213 100.00 72.083 46.874 73.421 64.601 
410 73.920 23.444 8.2853 31.501 15.753 0.70363 
411 40.629 85.534 53.423 32.072 52.030 34.491 
412 38.955 52.128 22.885 14.254 19.210 6.7956 
413 46.480 12.229 8.6707 11.184 5.5894 0.63849 
